Data from 42g_HRC06701__48__535.txt Node

Date: Thu Apr 18 02:42:51 CDT 2024
User: Estudiantes 2
Spectrometer: HR+C0670
Trigger mode: 4
Integration Time (sec): 1.000000E0
Scans to average: 1
Electric dark correction enabled: true
Nonlinearity correction enabled: false
Boxcar width: 0
XAxis mode: Wavelengths
Number of Pixels in Spectrum: 2048
>>>>>Begin Spectral Data<<<<<
407.81	-162.38
407.921	-162.38
408.032	-162.38
408.143	-130.38
408.254	-104.38
408.365	5.62
408.476	255.62
408.587	-20.38
408.699	-30.38
408.81	-18.38
408.921	-65.38
409.032	-22.38
409.143	21.62
409.254	47.62
409.365	143.62
409.476	-49.38
409.587	20.62
409.698	108.62
409.809	106.62
409.92	-27.38
410.031	-18.38
410.142	56.62
410.253	-20.38
410.364	19.62
410.475	395.62
410.585	2110.62
410.696	2316.62
410.807	2232.62
410.918	2165.62
411.029	2276.62
411.14	2287.62
411.251	2243.62
411.362	2333.62
411.472	2395.62
411.583	2295.62
411.694	2441.62
411.805	2414.62
411.916	2422.62
412.026	2487.62
412.137	2416.62
412.248	2434.62
412.359	2355.62
412.47	2277.62
412.58	2235.62
412.691	2358.62
412.802	2289.62
412.912	2290.62
413.023	2239.62
413.134	2333.62
413.245	2400.62
413.355	2314.62
413.466	2270.62
413.577	2235.62
413.687	2409.62
413.798	2249.62
413.909	2395.62
414.019	2387.62
414.13	2431.62
414.24	2344.62
414.351	2454.62
414.462	2565.62
414.572	2387.62
414.683	2471.62
414.793	2444.62
414.904	2808.62
415.014	2382.62
415.125	2390.62
415.235	2443.62
415.346	2521.62
415.456	2617.62
415.567	2381.62
415.677	2409.62
415.788	2516.62
415.898	2372.62
416.009	2398.62
416.119	2365.62
416.23	2363.62
416.34	2331.62
416.45	2399.62
416.561	3307.62
416.671	2524.62
416.782	2383.62
416.892	2421.62
417.002	2472.62
417.113	2494.62
417.223	2541.62
417.333	2490.62
417.444	2494.62
417.554	2568.62
417.664	2624.62
417.775	2451.62
417.885	2606.62
417.995	2650.62
418.106	2864.62
418.216	2736.62
418.326	2853.62
418.436	2742.62
418.547	2774.62
418.657	2728.62
418.767	2923.62
418.877	2825.62
418.987	2848.62
419.098	2883.62
419.208	2791.62
419.318	2837.62
419.428	2916.62
419.538	2774.62
419.648	2835.62
419.759	2844.62
419.869	2839.62
419.979	2752.62
420.089	2883.62
420.199	2877.62
420.309	2890.62
420.419	2877.62
420.529	2938.62
420.639	3407.62
420.749	2950.62
420.859	2948.62
420.969	2943.62
421.079	3185.62
421.189	3016.62
421.299	2931.62
421.409	2922.62
421.519	3082.62
421.629	3237.62
421.739	2944.62
421.849	3054.62
421.959	3105.62
422.069	3100.62
422.179	3127.62
422.289	3176.62
422.399	3223.62
422.509	3376.62
422.619	7180.62
422.729	3643.62
422.838	3288.62
422.948	3361.62
423.058	3406.62
423.168	3391.62
423.278	3529.62
423.388	3581.62
423.498	3626.62
423.607	3562.62
423.717	3966.62
423.827	3906.62
423.937	3663.62
424.046	3724.62
424.156	3819.62
424.266	3637.62
424.376	3942.62
424.485	3820.62
424.595	3650.62
424.705	3714.62
424.815	3772.62
424.924	4197.62
425.034	3822.62
425.144	3710.62
425.253	3691.62
425.363	3734.62
425.473	3823.62
425.582	3595.62
425.692	3656.62
425.801	3707.62
425.911	3884.62
426.021	3751.62
426.13	3910.62
426.24	4067.62
426.349	3926.62
426.459	3843.62
426.568	3834.62
426.678	3968.62
426.787	3822.62
426.897	3846.62
427.006	3927.62
427.116	3997.62
427.225	3884.62
427.335	4047.62
427.444	3942.62
427.554	3993.62
427.663	4070.62
427.773	3933.62
427.882	4095.62
427.992	4022.62
428.101	4090.62
428.21	4042.62
428.32	4200.62
428.429	4024.62
428.539	4419.62
428.648	4202.62
428.757	4247.62
428.867	4191.62
428.976	4446.62
429.085	4322.62
429.195	4215.62
429.304	4329.62
429.413	4387.62
429.523	4368.62
429.632	4376.62
429.741	4473.62
429.85	4355.62
429.96	4403.62
430.069	4434.62
430.178	4520.62
430.287	4789.62
430.397	4510.62
430.506	4517.62
430.615	4514.62
430.724	4675.62
430.833	4661.62
430.943	4690.62
431.052	4663.62
431.161	4791.62
431.27	4863.62
431.379	4827.62
431.488	5239.62
431.597	5183.62
431.706	5111.62
431.816	5168.62
431.925	5066.62
432.034	5069.62
432.143	5095.62
432.252	4966.62
432.361	5094.62
432.47	5126.62
432.579	5073.62
432.688	5044.62
432.797	5056.62
432.906	4939.62
433.015	5164.62
433.124	5518.62
433.233	5231.62
433.342	5241.62
433.451	5207.62
433.56	5280.62
433.669	5138.62
433.778	5193.62
433.886	5380.62
433.995	5371.62
434.104	5686.62
434.213	5660.62
434.322	5646.62
434.431	5897.62
434.54	5991.62
434.649	6266.62
434.757	6367.62
434.866	6011.62
434.975	5927.62
435.084	5779.62
435.193	5717.62
435.301	5671.62
435.41	5672.62
435.519	5814.62
435.628	5126.62
435.737	5065.62
435.845	5046.62
435.954	4871.62
436.063	4899.62
436.171	5083.62
436.28	5006.62
436.389	5063.62
436.498	4981.62
436.606	5157.62
436.715	5213.62
436.823	4886.62
436.932	4845.62
437.041	4773.62
437.149	4788.62
437.258	4675.62
437.367	4566.62
437.475	4585.62
437.584	4955.62
437.692	4583.62
437.801	6245.62
437.91	4746.62
438.018	4478.62
438.127	4399.62
438.235	4596.62
438.344	4611.62
438.452	4479.62
438.561	4511.62
438.669	4595.62
438.778	4423.62
438.886	4479.62
438.995	4515.62
439.103	4446.62
439.212	4551.62
439.32	4612.62
439.428	4423.62
439.537	4499.62
439.645	4701.62
439.754	4745.62
439.862	4509.62
439.97	4606.62
440.079	4772.62
440.187	4576.62
440.295	4818.62
440.404	4625.62
440.512	4744.62
440.62	4874.62
440.729	4939.62
440.837	5017.62
440.945	5852.62
441.054	5258.62
441.162	5197.62
441.27	5402.62
441.378	5514.62
441.487	5569.62
441.595	5854.62
441.703	5524.62
441.811	5437.62
441.92	5252.62
442.028	5091.62
442.136	5212.62
442.244	5143.62
442.352	5143.62
442.461	5069.62
442.569	5083.62
442.677	5139.62
442.785	5200.62
442.893	5158.62
443.001	5144.62
443.109	4991.62
443.217	5274.62
443.325	5200.62
443.434	5740.62
443.542	5533.62
443.65	5451.62
443.758	5572.62
443.866	5484.62
443.974	6077.62
444.082	5816.62
444.19	6171.62
444.298	6199.62
444.406	6580.62
444.514	6741.62
444.622	6921.62
444.73	6731.62
444.838	6457.62
444.946	6287.62
445.054	5913.62
445.161	5770.62
445.269	5418.62
445.377	5659.62
445.485	5379.62
445.593	5291.62
445.701	5502.62
445.809	5160.62
445.917	5262.62
446.025	5197.62
446.132	5305.62
446.24	5140.62
446.348	5137.62
446.456	4959.62
446.564	4996.62
446.671	5051.62
446.779	5022.62
446.887	5047.62
446.995	4970.62
447.102	5070.62
447.21	4941.62
447.318	4974.62
447.426	4900.62
447.533	5199.62
447.641	6237.62
447.749	5095.62
447.856	4926.62
447.964	4907.62
448.072	5013.62
448.179	4881.62
448.287	4886.62
448.395	4886.62
448.502	4930.62
448.61	4908.62
448.718	4916.62
448.825	5001.62
448.933	4903.62
449.04	4979.62
449.148	5005.62
449.256	4963.62
449.363	5060.62
449.471	5135.62
449.578	5250.62
449.686	4988.62
449.793	5251.62
449.901	5194.62
450.008	5242.62
450.116	5333.62
450.223	5246.62
450.331	5527.62
450.438	5474.62
450.546	5621.62
450.653	5704.62
450.76	5681.62
450.868	5720.62
450.975	5916.62
451.083	5766.62
451.19	5779.62
451.297	5740.62
451.405	5724.62
451.512	5766.62
451.619	5945.62
451.727	5924.62
451.834	5812.62
451.941	5905.62
452.049	5759.62
452.156	5866.62
452.263	6026.62
452.371	6045.62
452.478	6037.62
452.585	6127.62
452.692	6095.62
452.8	6083.62
452.907	6313.62
453.014	6190.62
453.121	6174.62
453.229	6103.62
453.336	6201.62
453.443	6386.62
453.55	6127.62
453.657	6230.62
453.765	6498.62
453.872	6253.62
453.979	6381.62
454.086	6487.62
454.193	6443.62
454.3	6271.62
454.407	6572.62
454.514	6589.62
454.621	6429.62
454.729	6421.62
454.836	6492.62
454.943	6567.62
455.05	6515.62
455.157	6765.62
455.264	6545.62
455.371	6608.62
455.478	6843.62
455.585	8184.62
455.692	6861.62
455.799	6951.62
455.906	6836.62
456.013	6787.62
456.12	6843.62
456.227	6853.62
456.334	7018.62
456.44	7145.62
456.547	7095.62
456.654	6917.62
456.761	7178.62
456.868	7307.62
456.975	7056.62
457.082	7162.62
457.189	7127.62
457.296	7206.62
457.402	7263.62
457.509	7153.62
457.616	7439.62
457.723	7746.62
457.83	7573.62
457.936	7655.62
458.043	8084.62
458.15	7788.62
458.257	8038.62
458.363	8159.62
458.47	8250.62
458.577	8433.62
458.684	8529.62
458.79	8944.62
458.897	9065.62
459.004	9328.62
459.11	9118.62
459.217	9316.62
459.324	9491.62
459.43	9878.62
459.537	10036.62
459.644	10142.62
459.75	10227.62
459.857	10891.62
459.964	10935.62
460.07	10970.62
460.177	11289.62
460.283	11234.62
460.39	11438.62
460.496	11174.62
460.603	11342.62
460.71	11309.62
460.816	11027.62
460.923	10887.62
461.029	10921.62
461.136	11030.62
461.242	11030.62
461.349	11050.62
461.455	11042.62
461.562	11235.62
461.668	11306.62
461.774	11309.62
461.881	11567.62
461.987	11967.62
462.094	12149.62
462.2	12174.62
462.307	12150.62
462.413	12313.62
462.519	12682.62
462.626	13589.62
462.732	13944.62
462.838	14576.62
462.945	14576.62
463.051	14576.62
463.157	14496.62
463.264	13719.62
463.37	13327.62
463.476	12810.62
463.583	12582.62
463.689	12550.62
463.795	12697.62
463.901	12717.62
464.008	13147.62
464.114	13055.62
464.22	13009.62
464.326	12677.62
464.433	12032.62
464.539	12220.62
464.645	11787.62
464.751	11812.62
464.857	11299.62
464.963	10631.62
465.07	10423.62
465.176	10054.62
465.282	9652.62
465.388	9351.62
465.494	9086.62
465.6	8985.62
465.706	8706.62
465.812	8667.62
465.918	8677.62
466.024	8358.62
466.131	8373.62
466.237	8170.62
466.343	7998.62
466.449	7883.62
466.555	7669.62
466.661	7573.62
466.767	7659.62
466.873	7639.62
466.979	7725.62
467.085	7517.62
467.191	7523.62
467.296	7474.62
467.402	7548.62
467.508	7514.62
467.614	7507.62
467.72	7071.62
467.826	6988.62
467.932	7092.62
468.038	7047.62
468.144	6870.62
468.25	6829.62
468.355	6803.62
468.461	6930.62
468.567	6756.62
468.673	6817.62
468.779	6759.62
468.885	6805.62
468.99	6757.62
469.096	6714.62
469.202	6900.62
469.308	6921.62
469.413	7127.62
469.519	7093.62
469.625	7090.62
469.731	7228.62
469.836	7037.62
469.942	7463.62
470.048	7333.62
470.153	7246.62
470.259	7256.62
470.365	7325.62
470.47	7243.62
470.576	7042.62
470.682	7078.62
470.787	6967.62
470.893	6823.62
470.999	6888.62
471.104	6758.62
471.21	6495.62
471.315	6367.62
471.421	6238.62
471.527	6529.62
471.632	6336.62
471.738	6319.62
471.843	6070.62
471.949	6082.62
472.054	6175.62
472.16	5963.62
472.265	5898.62
472.371	5968.62
472.476	5997.62
472.582	5886.62
472.687	5693.62
472.793	5718.62
472.898	5684.62
473.003	5612.62
473.109	5734.62
473.214	5579.62
473.32	5734.62
473.425	5757.62
473.53	5724.62
473.636	5479.62
473.741	5520.62
473.847	5572.62
473.952	5633.62
474.057	5650.62
474.163	5765.62
474.268	5470.62
474.373	5632.62
474.478	5626.62
474.584	5623.62
474.689	5593.62
474.794	5598.62
474.9	5912.62
475.005	5557.62
475.11	5825.62
475.215	5698.62
475.321	5615.62
475.426	5866.62
475.531	5880.62
475.636	5644.62
475.741	5633.62
475.846	6026.62
475.952	6055.62
476.057	5793.62
476.162	5861.62
476.267	5957.62
476.372	6222.62
476.477	5915.62
476.582	6152.62
476.687	6006.62
476.793	5978.62
476.898	5990.62
477.003	6131.62
477.108	6129.62
477.213	6203.62
477.318	6318.62
477.423	6382.62
477.528	6618.62
477.633	6668.62
477.738	6752.62
477.843	6718.62
477.948	6823.62
478.053	6727.62
478.158	6936.62
478.263	7154.62
478.368	7100.62
478.473	7269.62
478.578	7328.62
478.682	7277.62
478.787	7398.62
478.892	7263.62
478.997	7454.62
479.102	7305.62
479.207	7258.62
479.312	7556.62
479.417	7396.62
479.521	7362.62
479.626	7555.62
479.731	7620.62
479.836	7673.62
479.941	7914.62
480.045	8224.62
480.15	8311.62
480.255	8372.62
480.36	8293.62
480.465	8317.62
480.569	8322.62
480.674	7898.62
480.779	7751.62
480.883	7832.62
480.988	7795.62
481.093	7502.62
481.197	7596.62
481.302	7573.62
481.407	7448.62
481.511	9542.62
481.616	7605.62
481.721	7562.62
481.825	7633.62
481.93	7371.62
482.035	7643.62
482.139	7581.62
482.244	7547.62
482.348	7607.62
482.453	7634.62
482.557	7786.62
482.662	7762.62
482.767	7760.62
482.871	7699.62
482.976	7784.62
483.08	7934.62
483.185	8144.62
483.289	8012.62
483.394	8232.62
483.498	8237.62
483.603	8202.62
483.707	8439.62
483.811	8372.62
483.916	8510.62
484.02	8467.62
484.125	8703.62
484.229	8790.62
484.333	9038.62
484.438	8723.62
484.542	8822.62
484.647	9042.62
484.751	9239.62
484.855	9302.62
484.96	9267.62
485.064	9471.62
485.168	9543.62
485.273	9452.62
485.377	9549.62
485.481	9906.62
485.585	9675.62
485.69	9731.62
485.794	9826.62
485.898	9850.62
486.002	9783.62
486.107	9885.62
486.211	9762.62
486.315	9941.62
486.419	10137.62
486.524	10074.62
486.628	9957.62
486.732	9928.62
486.836	9979.62
486.94	10037.62
487.044	9943.62
487.148	10050.62
487.253	9812.62
487.357	10037.62
487.461	10116.62
487.565	9855.62
487.669	9906.62
487.773	9918.62
487.877	10034.62
487.981	9857.62
488.085	9882.62
488.189	9801.62
488.293	10027.62
488.397	10338.62
488.501	9962.62
488.605	9993.62
488.709	9865.62
488.813	9913.62
488.917	9745.62
489.021	9948.62
489.125	10271.62
489.229	9768.62
489.333	10079.62
489.437	10003.62
489.541	10029.62
489.645	9919.62
489.749	10081.62
489.853	10107.62
489.956	9890.62
490.06	10036.62
490.164	10055.62
490.268	9897.62
490.372	9961.62
490.476	9940.62
490.579	10108.62
490.683	10780.62
490.787	10037.62
490.891	10003.62
490.995	9944.62
491.098	9914.62
491.202	9897.62
491.306	9975.62
491.41	9880.62
491.513	9832.62
491.617	9971.62
491.721	10100.62
491.824	10117.62
491.928	9920.62
492.032	10242.62
492.136	10114.62
492.239	10053.62
492.343	10036.62
492.446	10540.62
492.55	10156.62
492.654	9925.62
492.757	10098.62
492.861	10055.62
492.965	9970.62
493.068	10084.62
493.172	10035.62
493.275	9976.62
493.379	10061.62
493.482	10241.62
493.586	10203.62
493.689	10362.62
493.793	10134.62
493.896	10384.62
494	10215.62
494.103	10317.62
494.207	10616.62
494.31	10616.62
494.414	10196.62
494.517	10194.62
494.621	10076.62
494.724	10048.62
494.828	9995.62
494.931	9889.62
495.034	10046.62
495.138	10199.62
495.241	9906.62
495.345	10596.62
495.448	10082.62
495.551	10052.62
495.655	9849.62
495.758	9862.62
495.861	9953.62
495.965	9867.62
496.068	10025.62
496.171	10069.62
496.274	10057.62
496.378	10142.62
496.481	10174.62
496.584	10134.62
496.687	10198.62
496.791	10383.62
496.894	10282.62
496.997	10432.62
497.1	10496.62
497.204	10573.62
497.307	10661.62
497.41	10914.62
497.513	11229.62
497.616	11130.62
497.719	11334.62
497.823	11446.62
497.926	11699.62
498.029	12021.62
498.132	12219.62
498.235	12571.62
498.338	13006.62
498.441	13325.62
498.544	13610.62
498.647	14083.62
498.75	14576.62
498.853	14576.62
498.956	14576.62
499.059	14576.62
499.163	14576.62
499.266	14576.62
499.369	14576.62
499.471	14576.62
499.574	14576.62
499.677	14576.62
499.78	14576.62
499.883	14576.62
499.986	14576.62
500.089	14576.62
500.192	14576.62
500.295	14576.62
500.398	14576.62
500.501	14576.62
500.604	14576.62
500.707	14576.62
500.809	14576.62
500.912	14576.62
501.015	14576.62
501.118	14576.62
501.221	14576.62
501.324	14576.62
501.426	14576.62
501.529	14576.62
501.632	14576.62
501.735	14060.62
501.837	13661.62
501.94	13277.62
502.043	12856.62
502.146	12574.62
502.248	12295.62
502.351	11845.62
502.454	11691.62
502.557	11334.62
502.659	11174.62
502.762	10730.62
502.865	10340.62
502.967	10311.62
503.07	10058.62
503.173	10029.62
503.275	9940.62
503.378	9554.62
503.48	9579.62
503.583	9628.62
503.686	9490.62
503.788	9741.62
503.891	9489.62
503.993	9915.62
504.096	9647.62
504.198	9842.62
504.301	9957.62
504.403	10027.62
504.506	9820.62
504.608	9448.62
504.711	9117.62
504.813	8862.62
504.916	8623.62
505.018	8237.62
505.121	8076.62
505.223	8107.62
505.326	7908.62
505.428	7844.62
505.531	7783.62
505.633	7640.62
505.735	7351.62
505.838	7436.62
505.94	7335.62
506.042	7139.62
506.145	7121.62
506.247	7321.62
506.35	7062.62
506.452	7106.62
506.554	7040.62
506.656	7052.62
506.759	6992.62
506.861	6894.62
506.963	6950.62
507.066	6994.62
507.168	7018.62
507.27	6909.62
507.372	6708.62
507.475	6841.62
507.577	6757.62
507.679	6692.62
507.781	6486.62
507.883	6572.62
507.986	6520.62
508.088	6474.62
508.19	6529.62
508.292	6566.62
508.394	6476.62
508.496	6354.62
508.598	6379.62
508.701	6455.62
508.803	6436.62
508.905	6382.62
509.007	6386.62
509.109	6412.62
509.211	6247.62
509.313	6378.62
509.415	6247.62
509.517	6360.62
509.619	6284.62
509.721	6388.62
509.823	6243.62
509.925	6483.62
510.027	6175.62
510.129	6201.62
510.231	6250.62
510.333	6192.62
510.435	6184.62
510.537	6287.62
510.639	6374.62
510.741	6266.62
510.843	6360.62
510.945	6181.62
511.047	6239.62
511.148	6261.62
511.25	6267.62
511.352	6276.62
511.454	6070.62
511.556	6249.62
511.658	6226.62
511.76	6286.62
511.861	6418.62
511.963	6183.62
512.065	6215.62
512.167	6205.62
512.268	6429.62
512.37	6325.62
512.472	6304.62
512.574	6434.62
512.676	6306.62
512.777	6126.62
512.879	6263.62
512.981	6310.62
513.082	6288.62
513.184	6369.62
513.286	6986.62
513.387	6454.62
513.489	6530.62
513.591	6486.62
513.692	6485.62
513.794	6518.62
513.896	6335.62
513.997	6399.62
514.099	6515.62
514.2	6653.62
514.302	6655.62
514.404	6523.62
514.505	6627.62
514.607	6764.62
514.708	6632.62
514.81	6841.62
514.911	6986.62
515.013	6958.62
515.114	6836.62
515.216	6892.62
515.317	7102.62
515.419	7060.62
515.52	7242.62
515.622	7370.62
515.723	7314.62
515.825	7631.62
515.926	7610.62
516.027	7614.62
516.129	7676.62
516.23	8022.62
516.332	8083.62
516.433	8151.62
516.534	8454.62
516.636	8641.62
516.737	8626.62
516.838	10191.62
516.94	9442.62
517.041	9567.62
517.142	9860.62
517.244	9985.62
517.345	10126.62
517.446	10219.62
517.547	10539.62
517.649	10254.62
517.75	10361.62
517.851	10207.62
517.952	10455.62
518.054	9930.62
518.155	9862.62
518.256	9399.62
518.357	9407.62
518.458	8970.62
518.56	8957.62
518.661	8819.62
518.762	8760.62
518.863	8768.62
518.964	8603.62
519.065	8223.62
519.166	8297.62
519.268	7978.62
519.369	8374.62
519.47	7978.62
519.571	7901.62
519.672	7724.62
519.773	7784.62
519.874	7835.62
519.975	7768.62
520.076	7618.62
520.177	7757.62
520.278	7664.62
520.379	7678.62
520.48	7496.62
520.581	7474.62
520.682	7610.62
520.783	7432.62
520.884	7654.62
520.985	7478.62
521.086	7596.62
521.187	7602.62
521.288	7335.62
521.389	7399.62
521.489	7414.62
521.59	7298.62
521.691	7440.62
521.792	7382.62
521.893	7475.62
521.994	7352.62
522.095	7333.62
522.195	7420.62
522.296	7447.62
522.397	7512.62
522.498	7326.62
522.599	7252.62
522.699	7379.62
522.8	7277.62
522.901	7378.62
523.002	7353.62
523.102	7607.62
523.203	7369.62
523.304	7527.62
523.405	7332.62
523.505	7529.62
523.606	7347.62
523.707	7397.62
523.807	7344.62
523.908	7243.62
524.009	7528.62
524.109	7429.62
524.21	7307.62
524.31	7387.62
524.411	7618.62
524.512	7539.62
524.612	7338.62
524.713	7536.62
524.813	7372.62
524.914	7620.62
525.014	13764.62
525.115	7857.62
525.216	7440.62
525.316	7456.62
525.417	7480.62
525.517	7400.62
525.618	7437.62
525.718	7509.62
525.819	7385.62
525.919	7496.62
526.019	7373.62
526.12	7579.62
526.22	7413.62
526.321	7444.62
526.421	7559.62
526.522	7455.62
526.622	7373.62
526.722	7411.62
526.823	7485.62
526.923	7508.62
527.023	7661.62
527.124	7465.62
527.224	7592.62
527.324	7496.62
527.425	7516.62
527.525	7320.62
527.625	7385.62
527.726	7521.62
527.826	7674.62
527.926	7476.62
528.026	7670.62
528.127	7400.62
528.227	7552.62
528.327	7564.62
528.427	7692.62
528.528	7544.62
528.628	7579.62
528.728	7528.62
528.828	7595.62
528.928	7610.62
529.029	7567.62
529.129	7595.62
529.229	7615.62
529.329	7569.62
529.429	7463.62
529.529	7589.62
529.629	7475.62
529.729	7564.62
529.829	7685.62
529.93	7420.62
530.03	7514.62
530.13	7442.62
530.23	7532.62
530.33	7730.62
530.43	7448.62
530.53	7478.62
530.63	7621.62
530.73	7405.62
530.83	7298.62
530.93	7394.62
531.03	7393.62
531.13	7528.62
531.23	7354.62
531.33	7479.62
531.429	7458.62
531.529	7705.62
531.629	7408.62
531.729	7366.62
531.829	7383.62
531.929	7373.62
532.029	7416.62
532.129	7322.62
532.229	7357.62
532.328	7259.62
532.428	7384.62
532.528	7277.62
532.628	7287.62
532.728	7277.62
532.827	7127.62
532.927	7291.62
533.027	7216.62
533.127	7289.62
533.227	7215.62
533.326	7134.62
533.426	7120.62
533.526	7332.62
533.625	7283.62
533.725	7426.62
533.825	7143.62
533.924	7018.62
534.024	6888.62
534.124	6957.62
534.223	7099.62
534.323	7415.62
534.423	7028.62
534.522	7054.62
534.622	6786.62
534.722	6859.62
534.821	6854.62
534.921	6927.62
535.02	6736.62
535.12	6874.62
535.219	6889.62
535.319	6747.62
535.419	6809.62
535.518	6674.62
535.618	6592.62
535.717	6701.62
535.817	6494.62
535.916	6395.62
536.016	6517.62
536.115	6382.62
536.215	6427.62
536.314	6209.62
536.413	6204.62
536.513	6352.62
536.612	6249.62
536.712	6239.62
536.811	6260.62
536.91	6045.62
537.01	6164.62
537.109	6272.62
537.209	6199.62
537.308	5986.62
537.407	6202.62
537.507	6091.62
537.606	6122.62
537.705	6197.62
537.805	6122.62
537.904	5960.62
538.003	5948.62
538.102	6159.62
538.202	5940.62
538.301	6051.62
538.4	6055.62
538.499	5938.62
538.599	5937.62
538.698	6117.62
538.797	5879.62
538.896	5939.62
538.995	5876.62
539.095	5864.62
539.194	6023.62
539.293	5858.62
539.392	5805.62
539.491	5733.62
539.59	5662.62
539.689	5922.62
539.789	5861.62
539.888	5541.62
539.987	5581.62
540.086	5611.62
540.185	5622.62
540.284	5610.62
540.383	5797.62
540.482	5576.62
540.581	5582.62
540.68	5586.62
540.779	5558.62
540.878	5577.62
540.977	5601.62
541.076	5559.62
541.175	5510.62
541.274	5847.62
541.373	5578.62
541.472	5530.62
541.571	5460.62
541.67	7003.62
541.769	5602.62
541.868	5477.62
541.966	5561.62
542.065	5392.62
542.164	5510.62
542.263	5398.62
542.362	5467.62
542.461	5488.62
542.56	5551.62
542.658	5431.62
542.757	5317.62
542.856	5351.62
542.955	5335.62
543.054	5305.62
543.152	5517.62
543.251	5342.62
543.35	5483.62
543.449	5457.62
543.547	5314.62
543.646	5415.62
543.745	5401.62
543.843	5426.62
543.942	5368.62
544.041	5247.62
544.14	5395.62
544.238	5333.62
544.337	5593.62
544.436	5494.62
544.534	5683.62
544.633	5578.62
544.731	5455.62
544.83	5522.62
544.929	5581.62
545.027	5541.62
545.126	5501.62
545.224	5622.62
545.323	5580.62
545.421	5527.62
545.52	5530.62
545.619	5404.62
545.717	5433.62
545.816	5601.62
545.914	5533.62
546.013	5786.62
546.111	5719.62
546.209	5592.62
546.308	5438.62
546.406	5443.62
546.505	5590.62
546.603	5375.62
546.702	5336.62
546.8	5405.62
546.899	5365.62
546.997	5437.62
547.095	5465.62
547.194	5439.62
547.292	5455.62
547.39	5508.62
547.489	5416.62
547.587	5776.62
547.685	5466.62
547.784	5898.62
547.882	5533.62
547.98	5490.62
548.079	5698.62
548.177	5470.62
548.275	5426.62
548.373	5610.62
548.472	5387.62
548.57	5362.62
548.668	5669.62
548.766	5549.62
548.864	5567.62
548.963	5555.62
549.061	5770.62
549.159	5520.62
549.257	5867.62
549.355	5666.62
549.454	5621.62
549.552	5751.62
549.65	5633.62
549.748	5599.62
549.846	5550.62
549.944	5455.62
550.042	5494.62
550.14	5442.62
550.238	5387.62
550.336	5385.62
550.434	5299.62
550.532	5391.62
550.631	5472.62
550.729	5416.62
550.827	5399.62
550.925	5390.62
551.023	5323.62
551.121	5277.62
551.218	5457.62
551.316	5338.62
551.414	5367.62
551.512	5338.62
551.61	5573.62
551.708	5508.62
551.806	5580.62
551.904	5621.62
552.002	5578.62
552.1	5590.62
552.198	5684.62
552.296	5939.62
552.393	6033.62
552.491	6048.62
552.589	6089.62
552.687	6190.62
552.785	6319.62
552.882	6494.62
552.98	6595.62
553.078	6382.62
553.176	6557.62
553.274	6282.62
553.371	6247.62
553.469	6409.62
553.567	6292.62
553.665	6120.62
553.762	6533.62
553.86	6189.62
553.958	5944.62
554.055	5866.62
554.153	5944.62
554.251	5767.62
554.348	5655.62
554.446	5658.62
554.544	5636.62
554.641	5900.62
554.739	5528.62
554.837	5513.62
554.934	5555.62
555.032	5438.62
555.129	5448.62
555.227	5610.62
555.324	6797.62
555.422	5454.62
555.519	5265.62
555.617	5236.62
555.715	5014.62
555.812	6793.62
555.91	5134.62
556.007	5250.62
556.105	5137.62
556.202	5128.62
556.299	5036.62
556.397	5121.62
556.494	5018.62
556.592	4923.62
556.689	5069.62
556.787	5036.62
556.884	4923.62
556.981	4991.62
557.079	4870.62
557.176	5006.62
557.273	5008.62
557.371	5127.62
557.468	4810.62
557.566	4993.62
557.663	5009.62
557.76	4934.62
557.857	4886.62
557.955	5078.62
558.052	5044.62
558.149	4977.62
558.247	5196.62
558.344	4920.62
558.441	4876.62
558.538	4903.62
558.636	5018.62
558.733	5062.62
558.83	5031.62
558.927	5011.62
559.024	5015.62
559.122	4950.62
559.219	4934.62
559.316	5122.62
559.413	5182.62
559.51	4982.62
559.607	5032.62
559.704	5044.62
559.801	4963.62
559.899	5093.62
559.996	5367.62
560.093	5094.62
560.19	5032.62
560.287	5181.62
560.384	5263.62
560.481	5055.62
560.578	5058.62
560.675	5021.62
560.772	5248.62
560.869	5139.62
560.966	5308.62
561.063	5116.62
561.16	5293.62
561.257	5142.62
561.354	5079.62
561.451	5272.62
561.548	5179.62
561.645	5396.62
561.742	5169.62
561.838	5194.62
561.935	5272.62
562.032	5278.62
562.129	5231.62
562.226	5203.62
562.323	5171.62
562.42	5419.62
562.516	5299.62
562.613	5189.62
562.71	5449.62
562.807	6178.62
562.904	5366.62
563	5443.62
563.097	5470.62
563.194	5448.62
563.291	5494.62
563.387	5555.62
563.484	5501.62
563.581	5598.62
563.678	5623.62
563.774	6174.62
563.871	5670.62
563.968	5719.62
564.064	5814.62
564.161	5804.62
564.258	5864.62
564.354	5976.62
564.451	6054.62
564.548	6109.62
564.644	6179.62
564.741	6212.62
564.837	6177.62
564.934	6387.62
565.031	6430.62
565.127	6501.62
565.224	6758.62
565.32	6951.62
565.417	6851.62
565.513	7015.62
565.61	7266.62
565.706	7524.62
565.803	7709.62
565.899	7958.62
565.996	8204.62
566.092	8407.62
566.189	8778.62
566.285	9200.62
566.382	9708.62
566.478	10116.62
566.574	10268.62
566.671	10296.62
566.767	10306.62
566.864	10062.62
566.96	10207.62
567.056	10375.62
567.153	10889.62
567.249	11116.62
567.345	11513.62
567.442	11847.62
567.538	12191.62
567.634	12485.62
567.731	12746.62
567.827	12727.62
567.923	12362.62
568.019	11771.62
568.116	11163.62
568.212	10531.62
568.308	10051.62
568.404	9597.62
568.501	9218.62
568.597	8937.62
568.693	8827.62
568.789	9167.62
568.885	8064.62
568.982	7779.62
569.078	7464.62
569.174	7381.62
569.27	6952.62
569.366	6920.62
569.462	6846.62
569.558	6602.62
569.655	6566.62
569.751	6400.62
569.847	6404.62
569.943	6380.62
570.039	6218.62
570.135	6709.62
570.231	6323.62
570.327	6348.62
570.423	6417.62
570.519	6411.62
570.615	6243.62
570.711	6348.62
570.807	6469.62
570.903	6396.62
570.999	6357.62
571.095	6255.62
571.191	6069.62
571.287	6045.62
571.383	5940.62
571.479	5783.62
571.574	5724.62
571.67	5513.62
571.766	5686.62
571.862	5301.62
571.958	5402.62
572.054	5426.62
572.15	5163.62
572.246	5141.62
572.341	5326.62
572.437	5195.62
572.533	5251.62
572.629	5096.62
572.725	5154.62
572.82	5151.62
572.916	5112.62
573.012	4978.62
573.108	5072.62
573.203	4915.62
573.299	4997.62
573.395	4861.62
573.49	4751.62
573.586	4834.62
573.682	4908.62
573.778	4961.62
573.873	4786.62
573.969	4834.62
574.065	4745.62
574.16	4710.62
574.256	4799.62
574.351	4914.62
574.447	4719.62
574.543	4833.62
574.638	4860.62
574.734	4828.62
574.829	5003.62
574.925	4759.62
575.02	4669.62
575.116	4585.62
575.212	4654.62
575.307	4670.62
575.403	4491.62
575.498	4541.62
575.594	4499.62
575.689	4537.62
575.784	4469.62
575.88	4523.62
575.975	4515.62
576.071	4317.62
576.166	4270.62
576.262	4309.62
576.357	4333.62
576.452	4630.62
576.548	4357.62
576.643	4295.62
576.739	4392.62
576.834	4339.62
576.929	4293.62
577.025	5108.62
577.12	4204.62
577.215	4077.62
577.311	4355.62
577.406	4343.62
577.501	4297.62
577.597	4009.62
577.692	4353.62
577.787	4303.62
577.882	3996.62
577.978	4026.62
578.073	4018.62
578.168	3970.62
578.263	3997.62
578.358	3954.62
578.454	3871.62
578.549	3854.62
578.644	3850.62
578.739	3985.62
578.834	3899.62
578.929	3823.62
579.025	3893.62
579.12	3885.62
579.215	4122.62
579.31	3957.62
579.405	3709.62
579.5	3851.62
579.595	3829.62
579.69	3688.62
579.785	3735.62
579.88	3737.62
579.975	3709.62
580.07	3694.62
580.165	3766.62
580.26	3876.62
580.355	3660.62
580.45	3638.62
580.545	3571.62
580.64	3576.62
580.735	3732.62
580.83	3700.62
580.925	3557.62
581.02	3528.62
581.115	3565.62
581.21	3422.62
581.305	3576.62
581.4	3587.62
581.495	3510.62
581.589	3533.62
581.684	3438.62
581.779	3498.62
581.874	3517.62
581.969	3458.62
582.064	3470.62
582.158	3410.62
582.253	3336.62
582.348	3482.62
582.443	3424.62
582.537	3414.62
582.632	3644.62
582.727	3469.62
582.822	3412.62
582.916	3342.62
583.011	3359.62
583.106	3406.62
583.201	3304.62
583.295	3400.62
583.39	3299.62
583.485	3260.62
583.579	5077.62
583.674	3488.62
583.769	3591.62
583.863	3313.62
583.958	3247.62
584.052	3158.62
584.147	3208.62
584.242	3156.62
584.336	3175.62
584.431	3462.62
584.525	3185.62
584.62	3422.62
584.714	3281.62
584.809	3228.62
584.903	3202.62
584.998	3246.62
585.092	3192.62
585.187	3242.62
585.281	3072.62
585.376	3212.62
585.47	3229.62
585.565	3183.62
585.659	3062.62
585.754	3166.62
585.848	3108.62
585.942	3154.62
586.037	3174.62
586.131	4489.62
586.226	3162.62
586.32	3276.62
586.414	3115.62
586.509	3211.62
586.603	3207.62
586.697	3178.62
586.792	3083.62
586.886	3082.62
586.98	3202.62
587.075	3100.62
587.169	3090.62
587.263	3342.62
587.357	3114.62
587.452	3029.62
587.546	3246.62
587.64	3139.62
587.734	3157.62
587.829	3322.62
587.923	3150.62
588.017	3196.62
588.111	3314.62
588.205	3501.62
588.3	3357.62
588.394	3517.62
588.488	3767.62
588.582	4143.62
588.676	5135.62
588.77	10490.62
588.864	14576.62
588.958	14576.62
589.052	14576.62
589.147	8610.62
589.241	6045.62
589.335	6740.62
589.429	14576.62
589.523	14576.62
589.617	13714.62
589.711	7938.62
589.805	5175.62
589.899	4198.62
589.993	3653.62
590.087	3399.62
590.181	3269.62
590.275	3307.62
590.369	3194.62
590.462	3039.62
590.556	3096.62
590.65	3088.62
590.744	3068.62
590.838	3113.62
590.932	3160.62
591.026	3224.62
591.12	3278.62
591.214	3145.62
591.307	3102.62
591.401	3113.62
591.495	3259.62
591.589	3091.62
591.683	3181.62
591.777	3301.62
591.87	3705.62
591.964	3323.62
592.058	3267.62
592.152	3379.62
592.245	3313.62
592.339	3546.62
592.433	3679.62
592.527	3553.62
592.62	3510.62
592.714	3732.62
592.808	3775.62
592.901	3756.62
592.995	3708.62
593.089	4126.62
593.182	3750.62
593.276	3701.62
593.37	3793.62
593.463	3741.62
593.557	3754.62
593.65	3782.62
593.744	3866.62
593.837	3949.62
593.931	3851.62
594.025	8340.62
594.118	4242.62
594.212	3783.62
594.305	3731.62
594.399	3607.62
594.492	3938.62
594.586	3567.62
594.679	3387.62
594.773	3349.62
594.866	3346.62
594.96	3230.62
595.053	3070.62
595.146	3120.62
595.24	3063.62
595.333	2995.62
595.427	2840.62
595.52	2927.62
595.614	3080.62
595.707	2837.62
595.8	2822.62
595.894	2767.62
595.987	2678.62
596.08	2700.62
596.174	3127.62
596.267	2728.62
596.36	2727.62
596.454	2811.62
596.547	2622.62
596.64	2447.62
596.733	2547.62
596.827	2568.62
596.92	2499.62
597.013	2469.62
597.106	2370.62
597.2	2439.62
597.293	2387.62
597.386	2666.62
597.479	2407.62
597.572	2454.62
597.666	2418.62
597.759	2360.62
597.852	2440.62
597.945	2395.62
598.038	2347.62
598.131	2301.62
598.224	2351.62
598.317	2394.62
598.411	2361.62
598.504	2272.62
598.597	2378.62
598.69	2235.62
598.783	2287.62
598.876	2419.62
598.969	2250.62
599.062	2200.62
599.155	2400.62
599.248	2258.62
599.341	2343.62
599.434	2339.62
599.527	2302.62
599.62	2255.62
599.713	2280.62
599.806	2296.62
599.899	2434.62
599.991	2262.62
600.084	2486.62
600.177	2169.62
600.27	2148.62
600.363	2469.62
600.456	2214.62
600.549	2252.62
600.642	2128.62
600.734	2163.62
600.827	2218.62
600.92	2337.62
601.013	2202.62
601.106	2227.62
601.199	2153.62
601.291	2238.62
601.384	2138.62
601.477	2342.62
601.57	2304.62
601.662	2088.62
601.755	2116.62
601.848	2280.62
601.94	2102.62
602.033	2296.62
602.126	2160.62
602.219	2122.62
602.311	2203.62
602.404	2102.62
602.497	2142.62
602.589	2073.62
602.682	2128.62
602.774	2208.62
602.867	2143.62
602.96	2069.62
603.052	2215.62
603.145	2047.62
603.237	2059.62
603.33	2164.62
603.422	2288.62
603.515	2058.62
603.608	2140.62
603.7	2143.62
603.793	2083.62
603.885	2132.62
603.978	2119.62
604.07	2008.62
604.163	2029.62
604.255	2127.62
604.347	2004.62
604.44	1975.62
604.532	2187.62
604.625	2119.62
604.717	1956.62
604.81	2089.62
604.902	2083.62
604.994	2012.62
605.087	2012.62
605.179	1997.62
605.271	2046.62
605.364	2039.62
605.456	2153.62
605.548	1975.62
605.641	2067.62
605.733	1994.62
605.825	2038.62
605.918	1918.62
606.01	2183.62
606.102	2591.62
606.194	1986.62
606.287	2156.62
606.379	1987.62
606.471	1959.62
606.563	2072.62
606.655	2138.62
606.748	2078.62
606.84	2006.62
606.932	2071.62
607.024	1948.62
607.116	1897.62
607.208	1979.62
607.301	2052.62
607.393	1991.62
607.485	1963.62
607.577	2075.62
607.669	2104.62
607.761	2063.62
607.853	2280.62
607.945	1959.62
608.037	1898.62
608.129	1949.62
608.221	1991.62
608.313	1884.62
608.405	2053.62
608.497	1963.62
608.589	1861.62
608.681	1939.62
608.773	2109.62
608.865	1938.62
608.957	1936.62
609.049	2020.62
609.141	2089.62
609.233	1942.62
609.325	1907.62
609.417	1955.62
609.509	2011.62
609.601	2093.62
609.693	2072.62
609.784	1889.62
609.876	1895.62
609.968	2055.62
610.06	4429.62
610.152	2190.62
610.244	2917.62
610.335	1958.62
610.427	1886.62
610.519	1948.62
610.611	1967.62
610.702	1890.62
610.794	1869.62
610.886	1981.62
610.978	1892.62
611.069	2410.62
611.161	1910.62
611.253	1878.62
611.344	1761.62
611.436	1787.62
611.528	1834.62
611.62	1626.62
611.711	1755.62
611.803	1757.62
611.894	1654.62
611.986	1639.62
612.078	1706.62
612.169	1582.62
612.261	1582.62
612.352	1607.62
612.444	1494.62
612.536	1662.62
612.627	1547.62
612.719	1497.62
612.81	1415.62
612.902	1443.62
612.993	1442.62
613.085	1439.62
613.176	1336.62
613.268	1417.62
613.359	1313.62
613.451	1266.62
613.542	1363.62
613.634	1284.62
613.725	1275.62
613.816	1379.62
613.908	1222.62
613.999	1145.62
614.091	1114.62
614.182	1061.62
614.273	1081.62
614.365	1054.62
614.456	1050.62
614.547	975.62
614.639	925.62
614.73	975.62
614.821	1041.62
614.913	865.62
615.004	834.62
615.095	816.62
615.187	739.62
