Data from 42g_HRC06701__30__517.txt Node

Date: Thu Apr 18 02:42:33 CDT 2024
User: Estudiantes 2
Spectrometer: HR+C0670
Trigger mode: 4
Integration Time (sec): 1.000000E0
Scans to average: 1
Electric dark correction enabled: true
Nonlinearity correction enabled: false
Boxcar width: 0
XAxis mode: Wavelengths
Number of Pixels in Spectrum: 2048
>>>>>Begin Spectral Data<<<<<
407.81	-139.69
407.921	-139.69
408.032	-139.69
408.143	-115.69
408.254	-147.69
408.365	12.31
408.476	317.31
408.587	3.31
408.699	-47.69
408.81	-50.69
408.921	-44.69
409.032	-70.69
409.143	40.31
409.254	65.31
409.365	82.31
409.476	-43.69
409.587	45.31
409.698	94.31
409.809	96.31
409.92	-29.69
410.031	-12.69
410.142	50.31
410.253	23.31
410.364	83.31
410.475	1539.31
410.585	7222.31
410.696	7785.31
410.807	7556.31
410.918	7592.31
411.029	7784.31
411.14	7720.31
411.251	7721.31
411.362	7797.31
411.472	8046.31
411.583	7820.31
411.694	8095.31
411.805	8111.31
411.916	8152.31
412.026	8178.31
412.137	7966.31
412.248	7894.31
412.359	7906.31
412.47	7701.31
412.58	7596.31
412.691	7832.31
412.802	7749.31
412.912	7752.31
413.023	7698.31
413.134	7797.31
413.245	7843.31
413.355	7799.31
413.466	7685.31
413.577	7771.31
413.687	7800.31
413.798	7545.31
413.909	7855.31
414.019	7897.31
414.13	8047.31
414.24	7960.31
414.351	8042.31
414.462	8285.31
414.572	8007.31
414.683	8014.31
414.793	7882.31
414.904	8229.31
415.014	7900.31
415.125	7714.31
415.235	7934.31
415.346	8064.31
415.456	7953.31
415.567	7799.31
415.677	7855.31
415.788	7904.31
415.898	7846.31
416.009	7792.31
416.119	7919.31
416.23	7926.31
416.34	7931.31
416.45	7894.31
416.561	8800.31
416.671	7864.31
416.782	7899.31
416.892	8058.31
417.002	8141.31
417.113	8301.31
417.223	8172.31
417.333	8074.31
417.444	8175.31
417.554	8344.31
417.664	8389.31
417.775	8262.31
417.885	8691.31
417.995	8515.31
418.106	8820.31
418.216	8715.31
418.326	9064.31
418.436	9070.31
418.547	8997.31
418.657	9102.31
418.767	9336.31
418.877	9244.31
418.987	9231.31
419.098	9218.31
419.208	9187.31
419.318	9200.31
419.428	9261.31
419.538	9114.31
419.648	9259.31
419.759	9157.31
419.869	9086.31
419.979	9172.31
420.089	9259.31
420.199	9303.31
420.309	9318.31
420.419	9345.31
420.529	9280.31
420.639	9654.31
420.749	9419.31
420.859	9445.31
420.969	9509.31
421.079	9805.31
421.189	9447.31
421.299	9226.31
421.409	9556.31
421.519	9597.31
421.629	9951.31
421.739	9581.31
421.849	9852.31
421.959	9787.31
422.069	9888.31
422.179	10092.31
422.289	10128.31
422.399	10405.31
422.509	10646.31
422.619	14404.31
422.729	10789.31
422.838	10487.31
422.948	10832.31
423.058	10705.31
423.168	10891.31
423.278	11001.31
423.388	11114.31
423.498	11452.31
423.607	11340.31
423.717	11656.31
423.827	11795.31
423.937	11491.31
424.046	11574.31
424.156	11695.31
424.266	11556.31
424.376	12034.31
424.485	11799.31
424.595	11786.31
424.705	11968.31
424.815	11862.31
424.924	12279.31
425.034	11788.31
425.144	11698.31
425.253	11974.31
425.363	12020.31
425.473	12012.31
425.582	11690.31
425.692	11909.31
425.801	11905.31
425.911	12255.31
426.021	12113.31
426.13	12285.31
426.24	12287.31
426.349	12242.31
426.459	12324.31
426.568	12341.31
426.678	12398.31
426.787	12362.31
426.897	12465.31
427.006	12533.31
427.116	12648.31
427.225	12624.31
427.335	12897.31
427.444	12773.31
427.554	12717.31
427.663	12897.31
427.773	12818.31
427.882	13047.31
427.992	13028.31
428.101	13120.31
428.21	12997.31
428.32	13232.31
428.429	13075.31
428.539	13488.31
428.648	13418.31
428.757	13327.31
428.867	13560.31
428.976	13870.31
429.085	13564.31
429.195	13698.31
429.304	13825.31
429.413	13756.31
429.523	13825.31
429.632	13774.31
429.741	14048.31
429.85	13926.31
429.96	14052.31
430.069	14100.31
430.178	14033.31
430.287	14463.31
430.397	14434.31
430.506	14222.31
430.615	14358.31
430.724	14561.31
430.833	14585.31
430.943	14579.31
431.052	14585.31
431.161	14585.31
431.27	14585.31
431.379	14585.31
431.488	14585.31
431.597	14585.31
431.706	14585.31
431.816	14585.31
431.925	14585.31
432.034	14585.31
432.143	14585.31
432.252	14585.31
432.361	14585.31
432.47	14585.31
432.579	14585.31
432.688	14585.31
432.797	14585.31
432.906	14585.31
433.015	14585.31
433.124	14585.31
433.233	14585.31
433.342	14585.31
433.451	14585.31
433.56	14585.31
433.669	14585.31
433.778	14585.31
433.886	14585.31
433.995	14585.31
434.104	14585.31
434.213	14585.31
434.322	14585.31
434.431	14585.31
434.54	14585.31
434.649	14585.31
434.757	14585.31
434.866	14585.31
434.975	14585.31
435.084	14585.31
435.193	14585.31
435.301	14585.31
435.41	14585.31
435.519	14585.31
435.628	14585.31
435.737	14585.31
435.845	14585.31
435.954	14585.31
436.063	14585.31
436.171	14585.31
436.28	14585.31
436.389	14585.31
436.498	14585.31
436.606	14585.31
436.715	14585.31
436.823	14585.31
436.932	14576.31
437.041	14287.31
437.149	14468.31
437.258	14086.31
437.367	13928.31
437.475	14014.31
437.584	14287.31
437.692	13790.31
437.801	14585.31
437.91	13781.31
438.018	13646.31
438.127	13716.31
438.235	13884.31
438.344	13919.31
438.452	13539.31
438.561	13646.31
438.669	13696.31
438.778	13455.31
438.886	13664.31
438.995	13602.31
439.103	13460.31
439.212	13615.31
439.32	13918.31
439.428	13666.31
439.537	13699.31
439.645	14093.31
439.754	13983.31
439.862	13815.31
439.97	13965.31
440.079	13976.31
440.187	13894.31
440.295	14314.31
440.404	14273.31
440.512	14251.31
440.62	14312.31
440.729	14585.31
440.837	14585.31
440.945	14585.31
441.054	14585.31
441.162	14585.31
441.27	14585.31
441.378	14585.31
441.487	14585.31
441.595	14585.31
441.703	14585.31
441.811	14585.31
441.92	14585.31
442.028	14585.31
442.136	14585.31
442.244	14585.31
442.352	14585.31
442.461	14585.31
442.569	14585.31
442.677	14585.31
442.785	14585.31
442.893	14585.31
443.001	14585.31
443.109	14585.31
443.217	14585.31
443.325	14585.31
443.434	14585.31
443.542	14585.31
443.65	14585.31
443.758	14585.31
443.866	14585.31
443.974	14585.31
444.082	14585.31
444.19	14585.31
444.298	14585.31
444.406	14585.31
444.514	14585.31
444.622	14585.31
444.73	14585.31
444.838	14585.31
444.946	14585.31
445.054	14585.31
445.161	14585.31
445.269	14585.31
445.377	14585.31
445.485	14585.31
445.593	14585.31
445.701	14585.31
445.809	14585.31
445.917	14585.31
446.025	14585.31
446.132	14585.31
446.24	14585.31
446.348	14585.31
446.456	14585.31
446.564	14585.31
446.671	14585.31
446.779	14585.31
446.887	14585.31
446.995	14585.31
447.102	14585.31
447.21	14585.31
447.318	14585.31
447.426	14585.31
447.533	14585.31
447.641	14585.31
447.749	14547.31
447.856	14417.31
447.964	14530.31
448.072	14585.31
448.179	14492.31
448.287	14559.31
448.395	14585.31
448.502	14465.31
448.61	14585.31
448.718	14585.31
448.825	14585.31
448.933	14585.31
449.04	14585.31
449.148	14585.31
449.256	14585.31
449.363	14585.31
449.471	14585.31
449.578	14585.31
449.686	14585.31
449.793	14585.31
449.901	14585.31
450.008	14585.31
450.116	14585.31
450.223	14585.31
450.331	14585.31
450.438	14585.31
450.546	14585.31
450.653	14585.31
450.76	14585.31
450.868	14585.31
450.975	14585.31
451.083	14585.31
451.19	14585.31
451.297	14585.31
451.405	14585.31
451.512	14585.31
451.619	14585.31
451.727	14585.31
451.834	14585.31
451.941	14585.31
452.049	14585.31
452.156	14585.31
452.263	14585.31
452.371	14585.31
452.478	14585.31
452.585	14585.31
452.692	14585.31
452.8	14585.31
452.907	14585.31
453.014	14585.31
453.121	14585.31
453.229	14585.31
453.336	14585.31
453.443	14585.31
453.55	14585.31
453.657	14585.31
453.765	14585.31
453.872	14585.31
453.979	14585.31
454.086	14585.31
454.193	14585.31
454.3	14585.31
454.407	14585.31
454.514	14585.31
454.621	14585.31
454.729	14585.31
454.836	14585.31
454.943	14585.31
455.05	14585.31
455.157	14585.31
455.264	14585.31
455.371	14585.31
455.478	14585.31
455.585	14585.31
455.692	14585.31
455.799	14585.31
455.906	14585.31
456.013	14585.31
456.12	14585.31
456.227	14585.31
456.334	14585.31
456.44	14585.31
456.547	14585.31
456.654	14585.31
456.761	14585.31
456.868	14585.31
456.975	14585.31
457.082	14585.31
457.189	14585.31
457.296	14585.31
457.402	14585.31
457.509	14585.31
457.616	14585.31
457.723	14585.31
457.83	14585.31
457.936	14585.31
458.043	14585.31
458.15	14585.31
458.257	14585.31
458.363	14585.31
458.47	14585.31
458.577	14585.31
458.684	14585.31
458.79	14585.31
458.897	14585.31
459.004	14585.31
459.11	14585.31
459.217	14585.31
459.324	14585.31
459.43	14585.31
459.537	14585.31
459.644	14585.31
459.75	14585.31
459.857	14585.31
459.964	14585.31
460.07	14585.31
460.177	14585.31
460.283	14585.31
460.39	14585.31
460.496	14585.31
460.603	14585.31
460.71	14585.31
460.816	14585.31
460.923	14585.31
461.029	14585.31
461.136	14585.31
461.242	14585.31
461.349	14585.31
461.455	14585.31
461.562	14585.31
461.668	14585.31
461.774	14585.31
461.881	14585.31
461.987	14585.31
462.094	14585.31
462.2	14585.31
462.307	14585.31
462.413	14585.31
462.519	14585.31
462.626	14585.31
462.732	14585.31
462.838	14585.31
462.945	14585.31
463.051	14585.31
463.157	14585.31
463.264	14585.31
463.37	14585.31
463.476	14585.31
463.583	14585.31
463.689	14585.31
463.795	14585.31
463.901	14585.31
464.008	14585.31
464.114	14585.31
464.22	14585.31
464.326	14585.31
464.433	14585.31
464.539	14585.31
464.645	14585.31
464.751	14585.31
464.857	14585.31
464.963	14585.31
465.07	14585.31
465.176	14585.31
465.282	14585.31
465.388	14585.31
465.494	14585.31
465.6	14585.31
465.706	14585.31
465.812	14585.31
465.918	14585.31
466.024	14585.31
466.131	14585.31
466.237	14585.31
466.343	14585.31
466.449	14585.31
466.555	14585.31
466.661	14585.31
466.767	14585.31
466.873	14585.31
466.979	14585.31
467.085	14585.31
467.191	14585.31
467.296	14585.31
467.402	14585.31
467.508	14585.31
467.614	14585.31
467.72	14585.31
467.826	14585.31
467.932	14585.31
468.038	14585.31
468.144	14585.31
468.25	14585.31
468.355	14585.31
468.461	14585.31
468.567	14585.31
468.673	14585.31
468.779	14585.31
468.885	14585.31
468.99	14585.31
469.096	14585.31
469.202	14585.31
469.308	14585.31
469.413	14585.31
469.519	14585.31
469.625	14585.31
469.731	14585.31
469.836	14585.31
469.942	14585.31
470.048	14585.31
470.153	14585.31
470.259	14585.31
470.365	14585.31
470.47	14585.31
470.576	14585.31
470.682	14585.31
470.787	14585.31
470.893	14585.31
470.999	14585.31
471.104	14585.31
471.21	14585.31
471.315	14585.31
471.421	14585.31
471.527	14585.31
471.632	14585.31
471.738	14585.31
471.843	14585.31
471.949	14585.31
472.054	14585.31
472.16	14585.31
472.265	14585.31
472.371	14585.31
472.476	14585.31
472.582	14585.31
472.687	14585.31
472.793	14585.31
472.898	14585.31
473.003	14585.31
473.109	14585.31
473.214	14585.31
473.32	14585.31
473.425	14585.31
473.53	14585.31
473.636	14585.31
473.741	14585.31
473.847	14585.31
473.952	14585.31
474.057	14585.31
474.163	14585.31
474.268	14585.31
474.373	14585.31
474.478	14585.31
474.584	14585.31
474.689	14585.31
474.794	14585.31
474.9	14585.31
475.005	14585.31
475.11	14585.31
475.215	14585.31
475.321	14585.31
475.426	14585.31
475.531	14585.31
475.636	14585.31
475.741	14585.31
475.846	14585.31
475.952	14585.31
476.057	14585.31
476.162	14585.31
476.267	14585.31
476.372	14585.31
476.477	14585.31
476.582	14585.31
476.687	14585.31
476.793	14585.31
476.898	14585.31
477.003	14585.31
477.108	14585.31
477.213	14585.31
477.318	14585.31
477.423	14585.31
477.528	14585.31
477.633	14585.31
477.738	14585.31
477.843	14585.31
477.948	14585.31
478.053	14585.31
478.158	14585.31
478.263	14585.31
478.368	14585.31
478.473	14585.31
478.578	14585.31
478.682	14585.31
478.787	14585.31
478.892	14585.31
478.997	14585.31
479.102	14585.31
479.207	14585.31
479.312	14585.31
479.417	14585.31
479.521	14585.31
479.626	14585.31
479.731	14585.31
479.836	14585.31
479.941	14585.31
480.045	14585.31
480.15	14585.31
480.255	14585.31
480.36	14585.31
480.465	14585.31
480.569	14585.31
480.674	14585.31
480.779	14585.31
480.883	14585.31
480.988	14585.31
481.093	14585.31
481.197	14585.31
481.302	14585.31
481.407	14585.31
481.511	14585.31
481.616	14585.31
481.721	14585.31
481.825	14585.31
481.93	14585.31
482.035	14585.31
482.139	14585.31
482.244	14585.31
482.348	14585.31
482.453	14585.31
482.557	14585.31
482.662	14585.31
482.767	14585.31
482.871	14585.31
482.976	14585.31
483.08	14585.31
483.185	14585.31
483.289	14585.31
483.394	14585.31
483.498	14585.31
483.603	14585.31
483.707	14585.31
483.811	14585.31
483.916	14585.31
484.02	14585.31
484.125	14585.31
484.229	14585.31
484.333	14585.31
484.438	14585.31
484.542	14585.31
484.647	14585.31
484.751	14585.31
484.855	14585.31
484.96	14585.31
485.064	14585.31
485.168	14585.31
485.273	14585.31
485.377	14585.31
485.481	14585.31
485.585	14585.31
485.69	14585.31
485.794	14585.31
485.898	14585.31
486.002	14585.31
486.107	14585.31
486.211	14585.31
486.315	14585.31
486.419	14585.31
486.524	14585.31
486.628	14585.31
486.732	14585.31
486.836	14585.31
486.94	14585.31
487.044	14585.31
487.148	14585.31
487.253	14585.31
487.357	14585.31
487.461	14585.31
487.565	14585.31
487.669	14585.31
487.773	14585.31
487.877	14585.31
487.981	14585.31
488.085	14585.31
488.189	14585.31
488.293	14585.31
488.397	14585.31
488.501	14585.31
488.605	14585.31
488.709	14585.31
488.813	14585.31
488.917	14585.31
489.021	14585.31
489.125	14585.31
489.229	14585.31
489.333	14585.31
489.437	14585.31
489.541	14585.31
489.645	14585.31
489.749	14585.31
489.853	14585.31
489.956	14585.31
490.06	14585.31
490.164	14585.31
490.268	14585.31
490.372	14585.31
490.476	14585.31
490.579	14585.31
490.683	14585.31
490.787	14585.31
490.891	14585.31
490.995	14585.31
491.098	14585.31
491.202	14585.31
491.306	14585.31
491.41	14585.31
491.513	14585.31
491.617	14585.31
491.721	14585.31
491.824	14585.31
491.928	14585.31
492.032	14585.31
492.136	14585.31
492.239	14585.31
492.343	14585.31
492.446	14585.31
492.55	14585.31
492.654	14585.31
492.757	14585.31
492.861	14585.31
492.965	14585.31
493.068	14585.31
493.172	14585.31
493.275	14585.31
493.379	14585.31
493.482	14585.31
493.586	14585.31
493.689	14585.31
493.793	14585.31
493.896	14585.31
494	14585.31
494.103	14585.31
494.207	14585.31
494.31	14585.31
494.414	14585.31
494.517	14585.31
494.621	14585.31
494.724	14585.31
494.828	14585.31
494.931	14585.31
495.034	14585.31
495.138	14585.31
495.241	14585.31
495.345	14585.31
495.448	14585.31
495.551	14585.31
495.655	14585.31
495.758	14585.31
495.861	14585.31
495.965	14585.31
496.068	14585.31
496.171	14585.31
496.274	14585.31
496.378	14585.31
496.481	14585.31
496.584	14585.31
496.687	14585.31
496.791	14585.31
496.894	14585.31
496.997	14585.31
497.1	14585.31
497.204	14585.31
497.307	14585.31
497.41	14585.31
497.513	14585.31
497.616	14585.31
497.719	14585.31
497.823	14585.31
497.926	14585.31
498.029	14585.31
498.132	14585.31
498.235	14585.31
498.338	14585.31
498.441	14585.31
498.544	14585.31
498.647	14585.31
498.75	14585.31
498.853	14585.31
498.956	14585.31
499.059	14585.31
499.163	14585.31
499.266	14585.31
499.369	14585.31
499.471	14585.31
499.574	14585.31
499.677	14585.31
499.78	14585.31
499.883	14585.31
499.986	14585.31
500.089	14585.31
500.192	14585.31
500.295	14585.31
500.398	14585.31
500.501	14585.31
500.604	14585.31
500.707	14585.31
500.809	14585.31
500.912	14585.31
501.015	14585.31
501.118	14585.31
501.221	14585.31
501.324	14585.31
501.426	14585.31
501.529	14585.31
501.632	14585.31
501.735	14585.31
501.837	14585.31
501.94	14585.31
502.043	14585.31
502.146	14585.31
502.248	14585.31
502.351	14585.31
502.454	14585.31
502.557	14585.31
502.659	14585.31
502.762	14585.31
502.865	14585.31
502.967	14585.31
503.07	14585.31
503.173	14585.31
503.275	14585.31
503.378	14585.31
503.48	14585.31
503.583	14585.31
503.686	14585.31
503.788	14585.31
503.891	14585.31
503.993	14585.31
504.096	14585.31
504.198	14585.31
504.301	14585.31
504.403	14585.31
504.506	14585.31
504.608	14585.31
504.711	14585.31
504.813	14585.31
504.916	14585.31
505.018	14585.31
505.121	14585.31
505.223	14585.31
505.326	14585.31
505.428	14585.31
505.531	14585.31
505.633	14585.31
505.735	14585.31
505.838	14585.31
505.94	14585.31
506.042	14585.31
506.145	14585.31
506.247	14585.31
506.35	14585.31
506.452	14585.31
506.554	14585.31
506.656	14585.31
506.759	14585.31
506.861	14585.31
506.963	14585.31
507.066	14585.31
507.168	14585.31
507.27	14585.31
507.372	14585.31
507.475	14585.31
507.577	14585.31
507.679	14585.31
507.781	14585.31
507.883	14585.31
507.986	14585.31
508.088	14585.31
508.19	14585.31
508.292	14585.31
508.394	14585.31
508.496	14585.31
508.598	14585.31
508.701	14585.31
508.803	14585.31
508.905	14585.31
509.007	14585.31
509.109	14585.31
509.211	14585.31
509.313	14585.31
509.415	14585.31
509.517	14585.31
509.619	14585.31
509.721	14585.31
509.823	14585.31
509.925	14585.31
510.027	14585.31
510.129	14585.31
510.231	14585.31
510.333	14585.31
510.435	14585.31
510.537	14585.31
510.639	14585.31
510.741	14585.31
510.843	14585.31
510.945	14585.31
511.047	14585.31
511.148	14585.31
511.25	14585.31
511.352	14585.31
511.454	14536.31
511.556	14585.31
511.658	14585.31
511.76	14585.31
511.861	14585.31
511.963	14585.31
512.065	14585.31
512.167	14585.31
512.268	14585.31
512.37	14585.31
512.472	14585.31
512.574	14585.31
512.676	14585.31
512.777	14585.31
512.879	14585.31
512.981	14585.31
513.082	14585.31
513.184	14585.31
513.286	14585.31
513.387	14585.31
513.489	14585.31
513.591	14585.31
513.692	14585.31
513.794	14585.31
513.896	14585.31
513.997	14585.31
514.099	14585.31
514.2	14585.31
514.302	14585.31
514.404	14585.31
514.505	14585.31
514.607	14585.31
514.708	14585.31
514.81	14585.31
514.911	14585.31
515.013	14585.31
515.114	14585.31
515.216	14585.31
515.317	14585.31
515.419	14585.31
515.52	14585.31
515.622	14585.31
515.723	14585.31
515.825	14585.31
515.926	14585.31
516.027	14585.31
516.129	14585.31
516.23	14585.31
516.332	14585.31
516.433	14585.31
516.534	14585.31
516.636	14585.31
516.737	14585.31
516.838	14585.31
516.94	14585.31
517.041	14585.31
517.142	14585.31
517.244	14585.31
517.345	14585.31
517.446	14585.31
517.547	14585.31
517.649	14585.31
517.75	14585.31
517.851	14585.31
517.952	14585.31
518.054	14585.31
518.155	14585.31
518.256	14585.31
518.357	14585.31
518.458	14585.31
518.56	14585.31
518.661	14585.31
518.762	14585.31
518.863	14585.31
518.964	14585.31
519.065	14585.31
519.166	14585.31
519.268	14585.31
519.369	14585.31
519.47	14585.31
519.571	14585.31
519.672	14585.31
519.773	14585.31
519.874	14585.31
519.975	14585.31
520.076	14585.31
520.177	14585.31
520.278	14585.31
520.379	14585.31
520.48	14585.31
520.581	14585.31
520.682	14585.31
520.783	14585.31
520.884	14585.31
520.985	14585.31
521.086	14585.31
521.187	14585.31
521.288	14585.31
521.389	14585.31
521.489	14585.31
521.59	14585.31
521.691	14585.31
521.792	14585.31
521.893	14585.31
521.994	14585.31
522.095	14585.31
522.195	14585.31
522.296	14585.31
522.397	14585.31
522.498	14585.31
522.599	14585.31
522.699	14585.31
522.8	14585.31
522.901	14585.31
523.002	14585.31
523.102	14585.31
523.203	14585.31
523.304	14585.31
523.405	14585.31
523.505	14585.31
523.606	14585.31
523.707	14585.31
523.807	14585.31
523.908	14585.31
524.009	14585.31
524.109	14585.31
524.21	14585.31
524.31	14585.31
524.411	14585.31
524.512	14585.31
524.612	14585.31
524.713	14585.31
524.813	14585.31
524.914	14585.31
525.014	14585.31
525.115	14585.31
525.216	14585.31
525.316	14585.31
525.417	14585.31
525.517	14585.31
525.618	14585.31
525.718	14585.31
525.819	14585.31
525.919	14585.31
526.019	14585.31
526.12	14585.31
526.22	14585.31
526.321	14585.31
526.421	14585.31
526.522	14585.31
526.622	14585.31
526.722	14585.31
526.823	14585.31
526.923	14585.31
527.023	14585.31
527.124	14585.31
527.224	14585.31
527.324	14585.31
527.425	14585.31
527.525	14585.31
527.625	14585.31
527.726	14585.31
527.826	14585.31
527.926	14585.31
528.026	14585.31
528.127	14585.31
528.227	14585.31
528.327	14585.31
528.427	14585.31
528.528	14585.31
528.628	14585.31
528.728	14585.31
528.828	14585.31
528.928	14585.31
529.029	14585.31
529.129	14585.31
529.229	14585.31
529.329	14585.31
529.429	14585.31
529.529	14585.31
529.629	14585.31
529.729	14585.31
529.829	14585.31
529.93	14585.31
530.03	14585.31
530.13	14585.31
530.23	14585.31
530.33	14585.31
530.43	14585.31
530.53	14585.31
530.63	14585.31
530.73	14585.31
530.83	14585.31
530.93	14585.31
531.03	14585.31
531.13	14585.31
531.23	14585.31
531.33	14585.31
531.429	14585.31
531.529	14585.31
531.629	14585.31
531.729	14585.31
531.829	14585.31
531.929	14585.31
532.029	14585.31
532.129	14585.31
532.229	14585.31
532.328	14585.31
532.428	14585.31
532.528	14585.31
532.628	14585.31
532.728	14585.31
532.827	14585.31
532.927	14585.31
533.027	14585.31
533.127	14585.31
533.227	14585.31
533.326	14585.31
533.426	14585.31
533.526	14585.31
533.625	14585.31
533.725	14585.31
533.825	14585.31
533.924	14585.31
534.024	14585.31
534.124	14585.31
534.223	14585.31
534.323	14585.31
534.423	14585.31
534.522	14585.31
534.622	14585.31
534.722	14585.31
534.821	14585.31
534.921	14585.31
535.02	14585.31
535.12	14585.31
535.219	14585.31
535.319	14585.31
535.419	14585.31
535.518	14585.31
535.618	14528.31
535.717	14529.31
535.817	14283.31
535.916	14064.31
536.016	14211.31
536.115	14020.31
536.215	13951.31
536.314	13827.31
536.413	13742.31
536.513	13703.31
536.612	13716.31
536.712	13584.31
536.811	13727.31
536.91	13561.31
537.01	13528.31
537.109	13674.31
537.209	13565.31
537.308	13440.31
537.407	13612.31
537.507	13461.31
537.606	13535.31
537.705	13535.31
537.805	13248.31
537.904	13154.31
538.003	13248.31
538.102	13243.31
538.202	13027.31
538.301	13261.31
538.4	13222.31
538.499	13018.31
538.599	13028.31
538.698	13263.31
538.797	13011.31
538.896	13091.31
538.995	12895.31
539.095	12729.31
539.194	13064.31
539.293	12731.31
539.392	12764.31
539.491	12758.31
539.59	12640.31
539.689	12775.31
539.789	12497.31
539.888	12326.31
539.987	12348.31
540.086	12330.31
540.185	12313.31
540.284	12357.31
540.383	12254.31
540.482	12257.31
540.581	12340.31
540.68	12243.31
540.779	12271.31
540.878	12288.31
540.977	12329.31
541.076	12184.31
541.175	12179.31
541.274	12443.31
541.373	12103.31
541.472	12207.31
541.571	12142.31
541.67	13510.31
541.769	12051.31
541.868	12160.31
541.966	11871.31
542.065	11951.31
542.164	11812.31
542.263	11957.31
542.362	11824.31
542.461	11804.31
542.56	11728.31
542.658	11935.31
542.757	11666.31
542.856	11598.31
542.955	11676.31
543.054	11502.31
543.152	11860.31
543.251	11688.31
543.35	11941.31
543.449	11554.31
543.547	11790.31
543.646	11652.31
543.745	11566.31
543.843	11756.31
543.942	11734.31
544.041	11779.31
544.14	11742.31
544.238	11735.31
544.337	11919.31
544.436	11909.31
544.534	12078.31
544.633	11794.31
544.731	11822.31
544.83	11791.31
544.929	11897.31
545.027	11808.31
545.126	12063.31
545.224	12023.31
545.323	12004.31
545.421	12004.31
545.52	12045.31
545.619	12124.31
545.717	11921.31
545.816	12016.31
545.914	12000.31
546.013	12075.31
546.111	12256.31
546.209	11658.31
546.308	11888.31
546.406	11773.31
546.505	12049.31
546.603	11849.31
546.702	11781.31
546.8	11636.31
546.899	11792.31
546.997	11778.31
547.095	11722.31
547.194	11768.31
547.292	11783.31
547.39	11955.31
547.489	11873.31
547.587	12165.31
547.685	11839.31
547.784	12178.31
547.882	11874.31
547.98	11913.31
548.079	11932.31
548.177	11863.31
548.275	11757.31
548.373	12089.31
548.472	11782.31
548.57	11819.31
548.668	11871.31
548.766	11916.31
548.864	12132.31
548.963	12067.31
549.061	12177.31
549.159	12058.31
549.257	12255.31
549.355	12134.31
549.454	12120.31
549.552	12391.31
549.65	12228.31
549.748	12197.31
549.846	11944.31
549.944	12004.31
550.042	11863.31
550.14	11858.31
550.238	11845.31
550.336	11794.31
550.434	11558.31
550.532	11627.31
550.631	11783.31
550.729	11677.31
550.827	11826.31
550.925	11605.31
551.023	11492.31
551.121	11595.31
551.218	11620.31
551.316	11667.31
551.414	11567.31
551.512	11717.31
551.61	11807.31
551.708	11969.31
551.806	11901.31
551.904	11991.31
552.002	12102.31
552.1	12241.31
552.198	12232.31
552.296	12424.31
552.393	12654.31
552.491	12917.31
552.589	12934.31
552.687	13122.31
552.785	13227.31
552.882	13363.31
552.98	13717.31
553.078	13535.31
553.176	13579.31
553.274	13346.31
553.371	13407.31
553.469	13452.31
553.567	13224.31
553.665	13028.31
553.762	13670.31
553.86	12975.31
553.958	12670.31
554.055	12536.31
554.153	12481.31
554.251	12358.31
554.348	12279.31
554.446	12113.31
554.544	11956.31
554.641	12327.31
554.739	11874.31
554.837	11782.31
554.934	11785.31
555.032	11717.31
555.129	11584.31
555.227	11805.31
555.324	14585.31
555.422	11531.31
555.519	11089.31
555.617	11266.31
555.715	10987.31
555.812	13073.31
555.91	11100.31
556.007	11111.31
556.105	10772.31
556.202	10964.31
556.299	10911.31
556.397	10823.31
556.494	10712.31
556.592	10758.31
556.689	10804.31
556.787	10662.31
556.884	10684.31
556.981	10836.31
557.079	10606.31
557.176	10707.31
557.273	10688.31
557.371	10908.31
557.468	10615.31
557.566	10843.31
557.663	10520.31
557.76	10616.31
557.857	10638.31
557.955	10651.31
558.052	10672.31
558.149	10785.31
558.247	10806.31
558.344	10644.31
558.441	10576.31
558.538	10573.31
558.636	10569.31
558.733	10702.31
558.83	10765.31
558.927	10754.31
559.024	10616.31
559.122	10652.31
559.219	10625.31
559.316	10782.31
559.413	10763.31
559.51	10615.31
559.607	10676.31
559.704	10774.31
559.801	10766.31
559.899	10735.31
559.996	10943.31
560.093	10733.31
560.19	10594.31
560.287	10725.31
560.384	10828.31
560.481	10616.31
560.578	10757.31
560.675	10827.31
560.772	11040.31
560.869	10878.31
560.966	11007.31
561.063	10804.31
561.16	10960.31
561.257	10919.31
561.354	10934.31
561.451	10815.31
561.548	11061.31
561.645	11272.31
561.742	10967.31
561.838	10989.31
561.935	11036.31
562.032	11181.31
562.129	10996.31
562.226	11139.31
562.323	11128.31
562.42	11223.31
562.516	11086.31
562.613	11216.31
562.71	11252.31
562.807	12251.31
562.904	11424.31
563	11310.31
563.097	11374.31
563.194	11547.31
563.291	11555.31
563.387	11580.31
563.484	11713.31
563.581	11708.31
563.678	11533.31
563.774	12224.31
563.871	11963.31
563.968	11915.31
564.064	12138.31
564.161	12064.31
564.258	12196.31
564.354	12583.31
564.451	12534.31
564.548	12612.31
564.644	12693.31
564.741	12872.31
564.837	12927.31
564.934	13116.31
565.031	13119.31
565.127	13482.31
565.224	13755.31
565.32	14047.31
565.417	14098.31
565.513	14523.31
565.61	14585.31
565.706	14585.31
565.803	14585.31
565.899	14585.31
565.996	14585.31
566.092	14585.31
566.189	14585.31
566.285	14585.31
566.382	14585.31
566.478	14585.31
566.574	14585.31
566.671	14585.31
566.767	14585.31
566.864	14585.31
566.96	14585.31
567.056	14585.31
567.153	14585.31
567.249	14585.31
567.345	14585.31
567.442	14585.31
567.538	14585.31
567.634	14585.31
567.731	14585.31
567.827	14585.31
567.923	14585.31
568.019	14585.31
568.116	14585.31
568.212	14585.31
568.308	14585.31
568.404	14585.31
568.501	14585.31
568.597	14585.31
568.693	14585.31
568.789	14585.31
568.885	14585.31
568.982	14585.31
569.078	14585.31
569.174	14585.31
569.27	14077.31
569.366	14003.31
569.462	13695.31
569.558	13598.31
569.655	13323.31
569.751	12894.31
569.847	12819.31
569.943	12888.31
570.039	12753.31
570.135	13266.31
570.231	12516.31
570.327	12834.31
570.423	12758.31
570.519	12708.31
570.615	12696.31
570.711	12893.31
570.807	12932.31
570.903	12712.31
570.999	12532.31
571.095	12571.31
571.191	12257.31
571.287	12080.31
571.383	12130.31
571.479	11729.31
571.574	11568.31
571.67	11363.31
571.766	11476.31
571.862	10982.31
571.958	11013.31
572.054	10942.31
572.15	10671.31
572.246	10528.31
572.341	10893.31
572.437	10506.31
572.533	10517.31
572.629	10459.31
572.725	10365.31
572.82	10107.31
572.916	10366.31
573.012	10258.31
573.108	10333.31
573.203	10004.31
573.299	9982.31
573.395	9730.31
573.49	9877.31
573.586	9854.31
573.682	9788.31
573.778	10017.31
573.873	9573.31
573.969	9666.31
574.065	9872.31
574.16	9820.31
574.256	9819.31
574.351	9799.31
574.447	9655.31
574.543	9804.31
574.638	9843.31
574.734	9558.31
574.829	9780.31
574.925	9613.31
575.02	9448.31
575.116	9456.31
575.212	9177.31
575.307	9366.31
575.403	9158.31
575.498	9124.31
575.594	9109.31
575.689	9133.31
575.784	8990.31
575.88	8872.31
575.975	8976.31
576.071	8971.31
576.166	8785.31
576.262	8823.31
576.357	8766.31
576.452	8949.31
576.548	8731.31
576.643	8748.31
576.739	8744.31
576.834	8559.31
576.929	8588.31
577.025	9421.31
577.12	8328.31
577.215	8428.31
577.311	8473.31
577.406	8420.31
577.501	8455.31
577.597	8143.31
577.692	8318.31
577.787	8339.31
577.882	8161.31
577.978	8077.31
578.073	8047.31
578.168	8031.31
578.263	8003.31
578.358	7915.31
578.454	7787.31
578.549	7809.31
578.644	7721.31
578.739	7855.31
578.834	7697.31
578.929	7667.31
579.025	7764.31
579.12	7861.31
579.215	7844.31
579.31	7669.31
579.405	7574.31
579.5	7583.31
579.595	7507.31
579.69	7448.31
579.785	7390.31
579.88	7324.31
579.975	7279.31
580.07	7305.31
580.165	7445.31
580.26	7427.31
580.355	7206.31
580.45	7184.31
580.545	7087.31
580.64	7181.31
580.735	7273.31
580.83	7164.31
580.925	6985.31
581.02	6997.31
581.115	6971.31
581.21	6911.31
581.305	7038.31
581.4	6961.31
581.495	6895.31
581.589	6944.31
581.684	6855.31
581.779	6951.31
581.874	6861.31
581.969	7063.31
582.064	6708.31
582.158	6731.31
582.253	6710.31
582.348	6744.31
582.443	6683.31
582.537	6691.31
582.632	6951.31
582.727	6609.31
582.822	6540.31
582.916	6501.31
583.011	6495.31
583.106	6625.31
583.201	6601.31
583.295	6578.31
583.39	6399.31
583.485	6341.31
583.579	8162.31
583.674	6539.31
583.769	6776.31
583.863	6405.31
583.958	6443.31
584.052	6280.31
584.147	6339.31
584.242	6200.31
584.336	6195.31
584.431	6559.31
584.525	6212.31
584.62	6480.31
584.714	6381.31
584.809	6263.31
584.903	6280.31
584.998	6320.31
585.092	6119.31
585.187	6127.31
585.281	6079.31
585.376	6285.31
585.47	6231.31
585.565	6103.31
585.659	6177.31
585.754	6058.31
585.848	6116.31
585.942	6090.31
586.037	5982.31
586.131	7410.31
586.226	6056.31
586.32	6058.31
586.414	5879.31
586.509	6239.31
586.603	6215.31
586.697	5994.31
586.792	5921.31
586.886	5964.31
586.98	6059.31
587.075	5918.31
587.169	5895.31
587.263	6119.31
587.357	5908.31
587.452	6034.31
587.546	6128.31
587.64	5965.31
587.734	6077.31
587.829	6174.31
587.923	6000.31
588.017	6148.31
588.111	6324.31
588.205	6503.31
588.3	6510.31
588.394	6757.31
588.488	7135.31
588.582	7815.31
588.676	9544.31
588.77	14585.31
588.864	14585.31
588.958	14585.31
589.052	14585.31
589.147	14585.31
589.241	11234.31
589.335	11792.31
589.429	14585.31
589.523	14585.31
589.617	14585.31
589.711	13862.31
589.805	9549.31
589.899	7909.31
589.993	6891.31
590.087	6540.31
590.181	6352.31
590.275	6342.31
590.369	6092.31
590.462	6027.31
590.556	6052.31
590.65	5862.31
590.744	5878.31
590.838	5944.31
590.932	5785.31
591.026	5885.31
591.12	6213.31
591.214	5868.31
591.307	5982.31
591.401	5928.31
591.495	6017.31
591.589	5891.31
591.683	6001.31
591.777	6132.31
591.87	6475.31
591.964	6189.31
592.058	6101.31
592.152	6317.31
592.245	6216.31
592.339	6585.31
592.433	6583.31
592.527	6576.31
592.62	6604.31
592.714	6749.31
592.808	6870.31
592.901	7017.31
592.995	6896.31
593.089	7155.31
593.182	7133.31
593.276	6969.31
593.37	6930.31
593.463	6843.31
593.557	6977.31
593.65	6875.31
593.744	7011.31
593.837	7137.31
593.931	7137.31
594.025	10568.31
594.118	7300.31
594.212	6885.31
594.305	6709.31
594.399	6695.31
594.492	7042.31
594.586	6447.31
594.679	6244.31
594.773	6172.31
594.866	6197.31
594.96	6052.31
595.053	5839.31
595.146	5812.31
595.24	5732.31
595.333	5696.31
595.427	5474.31
595.52	5388.31
595.614	5509.31
595.707	5403.31
595.8	5125.31
595.894	5004.31
595.987	5030.31
596.08	4962.31
596.174	5375.31
596.267	4938.31
596.36	5062.31
596.454	5056.31
596.547	4936.31
596.64	4806.31
596.733	4645.31
596.827	4791.31
596.92	4735.31
597.013	4577.31
597.106	4535.31
597.2	4555.31
597.293	4531.31
597.386	4822.31
597.479	4542.31
597.572	4603.31
597.666	4437.31
597.759	4431.31
597.852	4407.31
597.945	4272.31
598.038	4260.31
598.131	4338.31
598.224	4357.31
598.317	4401.31
598.411	4337.31
598.504	4333.31
598.597	4299.31
598.69	4295.31
598.783	4283.31
598.876	4246.31
598.969	4182.31
599.062	4281.31
599.155	4313.31
599.248	4195.31
599.341	4288.31
599.434	4136.31
599.527	4235.31
599.62	4174.31
599.713	4165.31
599.806	4258.31
599.899	4275.31
599.991	4114.31
600.084	4357.31
600.177	4032.31
600.27	4161.31
600.363	4290.31
600.456	4093.31
600.549	4225.31
600.642	3977.31
600.734	3987.31
600.827	4042.31
600.92	4250.31
601.013	4032.31
601.106	4137.31
601.199	3995.31
601.291	4007.31
601.384	3949.31
601.477	4283.31
601.57	4104.31
601.662	3939.31
601.755	3962.31
601.848	3979.31
601.94	3904.31
602.033	4008.31
602.126	3959.31
602.219	3879.31
602.311	4067.31
602.404	3934.31
602.497	3818.31
602.589	3859.31
602.682	3913.31
602.774	3915.31
602.867	3826.31
602.96	3873.31
603.052	3829.31
603.145	3784.31
603.237	3881.31
603.33	3911.31
603.422	3974.31
603.515	3741.31
603.608	3821.31
603.7	3740.31
603.793	3879.31
603.885	3850.31
603.978	3704.31
604.07	3772.31
604.163	3825.31
604.255	3842.31
604.347	3796.31
604.44	3730.31
604.532	3888.31
604.625	3764.31
604.717	3686.31
604.81	3845.31
604.902	3720.31
604.994	3708.31
605.087	3712.31
605.179	3707.31
605.271	3734.31
605.364	3756.31
605.456	3806.31
605.548	3772.31
605.641	3740.31
605.733	3625.31
605.825	3652.31
605.918	3612.31
606.01	3855.31
606.102	4234.31
606.194	3607.31
606.287	3911.31
606.379	3608.31
606.471	3646.31
606.563	3718.31
606.655	3740.31
606.748	3758.31
606.84	3717.31
606.932	3765.31
607.024	3518.31
607.116	3548.31
607.208	3669.31
607.301	3576.31
607.393	3571.31
607.485	3574.31
607.577	3611.31
607.669	3680.31
607.761	3632.31
607.853	3941.31
607.945	3540.31
608.037	3481.31
608.129	3598.31
608.221	3574.31
608.313	3463.31
608.405	3656.31
608.497	3540.31
608.589	3525.31
608.681	3597.31
608.773	3692.31
608.865	3511.31
608.957	3548.31
609.049	3518.31
609.141	3617.31
609.233	3507.31
609.325	3456.31
609.417	3467.31
609.509	3570.31
609.601	3786.31
609.693	3621.31
609.784	3547.31
609.876	3538.31
609.968	3548.31
610.06	5992.31
610.152	3732.31
610.244	4448.31
610.335	3493.31
610.427	3485.31
610.519	3423.31
610.611	3434.31
610.702	3351.31
610.794	3399.31
610.886	3349.31
610.978	3328.31
611.069	3847.31
611.161	3233.31
611.253	3326.31
611.344	3120.31
611.436	3141.31
611.528	3134.31
611.62	3008.31
611.711	3070.31
611.803	2938.31
611.894	2899.31
611.986	2952.31
612.078	2956.31
612.169	2910.31
612.261	2847.31
612.352	2722.31
612.444	2653.31
612.536	2752.31
612.627	2669.31
612.719	2562.31
612.81	2517.31
612.902	2537.31
612.993	2499.31
613.085	2439.31
613.176	2316.31
613.268	2371.31
613.359	2321.31
613.451	2318.31
613.542	2207.31
613.634	2203.31
613.725	2219.31
613.816	2263.31
613.908	2038.31
613.999	2031.31
614.091	2033.31
614.182	1898.31
614.273	1942.31
614.365	1916.31
614.456	1768.31
614.547	1789.31
614.639	1698.31
614.73	1742.31
614.821	1762.31
614.913	1576.31
615.004	1579.31
615.095	1467.31
615.187	1446.31
