Data from 42g_HRC06701__57__544.txt Node

Date: Thu Apr 18 02:43:00 CDT 2024
User: Estudiantes 2
Spectrometer: HR+C0670
Trigger mode: 4
Integration Time (sec): 1.000000E0
Scans to average: 1
Electric dark correction enabled: true
Nonlinearity correction enabled: false
Boxcar width: 0
XAxis mode: Wavelengths
Number of Pixels in Spectrum: 2048
>>>>>Begin Spectral Data<<<<<
407.81	-144.44
407.921	-144.44
408.032	-144.44
408.143	-140.44
408.254	-145.44
408.365	49.56
408.476	299.56
408.587	-50.44
408.699	-4.44
408.81	15.56
408.921	-64.44
409.032	-35.44
409.143	62.56
409.254	-6.44
409.365	75.56
409.476	-15.44
409.587	27.56
409.698	76.56
409.809	97.56
409.92	-10.44
410.031	-54.44
410.142	81.56
410.253	58.56
410.364	30.56
410.475	289.56
410.585	1762.56
410.696	1878.56
410.807	1837.56
410.918	1829.56
411.029	1954.56
411.14	1954.56
411.251	1865.56
411.362	1921.56
411.472	1940.56
411.583	1967.56
411.694	2049.56
411.805	1954.56
411.916	1983.56
412.026	2114.56
412.137	1988.56
412.248	1957.56
412.359	1971.56
412.47	1860.56
412.58	1794.56
412.691	1908.56
412.802	1885.56
412.912	1866.56
413.023	1906.56
413.134	1924.56
413.245	1954.56
413.355	1819.56
413.466	1866.56
413.577	1863.56
413.687	1927.56
413.798	1826.56
413.909	2004.56
414.019	1899.56
414.13	1924.56
414.24	1964.56
414.351	1968.56
414.462	2133.56
414.572	1953.56
414.683	1945.56
414.793	1972.56
414.904	2375.56
415.014	1895.56
415.125	1830.56
415.235	1957.56
415.346	2079.56
415.456	1982.56
415.567	1899.56
415.677	1985.56
415.788	2025.56
415.898	1889.56
416.009	1961.56
416.119	1913.56
416.23	1939.56
416.34	1918.56
416.45	1901.56
416.561	2791.56
416.671	2054.56
416.782	1895.56
416.892	1953.56
417.002	2015.56
417.113	2129.56
417.223	1983.56
417.333	1922.56
417.444	2012.56
417.554	2009.56
417.664	2134.56
417.775	1970.56
417.885	2064.56
417.995	2028.56
418.106	2282.56
418.216	2166.56
418.326	2216.56
418.436	2236.56
418.547	2219.56
418.657	2203.56
418.767	2333.56
418.877	2319.56
418.987	2206.56
419.098	2258.56
419.208	2349.56
419.318	2289.56
419.428	2247.56
419.538	2242.56
419.648	2338.56
419.759	2214.56
419.869	2273.56
419.979	2284.56
420.089	2269.56
420.199	2213.56
420.309	2335.56
420.419	2279.56
420.529	2218.56
420.639	2830.56
420.749	2344.56
420.859	2329.56
420.969	2375.56
421.079	2610.56
421.189	2331.56
421.299	2311.56
421.409	2259.56
421.519	2452.56
421.629	2450.56
421.739	2399.56
421.849	2311.56
421.959	2346.56
422.069	2452.56
422.179	2410.56
422.289	2424.56
422.399	2489.56
422.509	2709.56
422.619	5403.56
422.729	2843.56
422.838	2534.56
422.948	2649.56
423.058	2625.56
423.168	2709.56
423.278	2628.56
423.388	2729.56
423.498	2837.56
423.607	2903.56
423.717	3072.56
423.827	3178.56
423.937	2880.56
424.046	2946.56
424.156	2905.56
424.266	2847.56
424.376	3021.56
424.485	2974.56
424.595	2856.56
424.705	2813.56
424.815	2887.56
424.924	3387.56
425.034	2932.56
425.144	2770.56
425.253	2846.56
425.363	2993.56
425.473	2943.56
425.582	2799.56
425.692	2859.56
425.801	2847.56
425.911	3032.56
426.021	3013.56
426.13	3027.56
426.24	3162.56
426.349	3000.56
426.459	2961.56
426.568	2903.56
426.678	3107.56
426.787	3070.56
426.897	2931.56
427.006	2976.56
427.116	3083.56
427.225	3019.56
427.335	3124.56
427.444	3116.56
427.554	3124.56
427.663	3093.56
427.773	3099.56
427.882	3181.56
427.992	3079.56
428.101	3161.56
428.21	3113.56
428.32	3202.56
428.429	3120.56
428.539	3541.56
428.648	3139.56
428.757	3282.56
428.867	3342.56
428.976	3393.56
429.085	3215.56
429.195	3312.56
429.304	3274.56
429.413	3417.56
429.523	3403.56
429.632	3349.56
429.741	3319.56
429.85	3296.56
429.96	3476.56
430.069	3409.56
430.178	3362.56
430.287	3682.56
430.397	3438.56
430.506	3422.56
430.615	3479.56
430.724	3594.56
430.833	3561.56
430.943	3544.56
431.052	3635.56
431.161	3571.56
431.27	3676.56
431.379	3687.56
431.488	3928.56
431.597	3815.56
431.706	3953.56
431.816	3863.56
431.925	3804.56
432.034	3715.56
432.143	3907.56
432.252	3747.56
432.361	3865.56
432.47	3819.56
432.579	3730.56
432.688	3738.56
432.797	3872.56
432.906	3643.56
433.015	3875.56
433.124	4249.56
433.233	3913.56
433.342	3952.56
433.451	3960.56
433.56	3887.56
433.669	3828.56
433.778	3856.56
433.886	3997.56
433.995	3886.56
434.104	4216.56
434.213	4199.56
434.322	4083.56
434.431	4331.56
434.54	4477.56
434.649	4672.56
434.757	4555.56
434.866	4374.56
434.975	4465.56
435.084	4370.56
435.193	4204.56
435.301	4399.56
435.41	4353.56
435.519	4349.56
435.628	3919.56
435.737	3684.56
435.845	3711.56
435.954	3597.56
436.063	3686.56
436.171	3675.56
436.28	3679.56
436.389	3902.56
436.498	3708.56
436.606	3635.56
436.715	3875.56
436.823	3528.56
436.932	3452.56
437.041	3523.56
437.149	3560.56
437.258	3380.56
437.367	3404.56
437.475	3371.56
437.584	3632.56
437.692	3430.56
437.801	5115.56
437.91	3495.56
438.018	3359.56
438.127	3361.56
438.235	3356.56
438.344	3300.56
438.452	3357.56
438.561	3245.56
438.669	3255.56
438.778	3192.56
438.886	3266.56
438.995	3203.56
439.103	3274.56
439.212	3386.56
439.32	3297.56
439.428	3227.56
439.537	3401.56
439.645	3403.56
439.754	3417.56
439.862	3424.56
439.97	3425.56
440.079	3431.56
440.187	3354.56
440.295	3586.56
440.404	3448.56
440.512	3453.56
440.62	3607.56
440.729	3636.56
440.837	3674.56
440.945	4551.56
441.054	3837.56
441.162	3777.56
441.27	4027.56
441.378	4004.56
441.487	3938.56
441.595	4556.56
441.703	4056.56
441.811	3917.56
441.92	3879.56
442.028	3681.56
442.136	3838.56
442.244	3786.56
442.352	3817.56
442.461	3594.56
442.569	3637.56
442.677	3759.56
442.785	3734.56
442.893	3729.56
443.001	3684.56
443.109	3742.56
443.217	3756.56
443.325	3663.56
443.434	4367.56
443.542	4125.56
443.65	3866.56
443.758	4077.56
443.866	3905.56
443.974	4364.56
444.082	4231.56
444.19	4347.56
444.298	4386.56
444.406	4592.56
444.514	4732.56
444.622	4794.56
444.73	4770.56
444.838	4667.56
444.946	4502.56
445.054	4245.56
445.161	4303.56
445.269	3948.56
445.377	3927.56
445.485	3949.56
445.593	3771.56
445.701	3994.56
445.809	3737.56
445.917	3798.56
446.025	3612.56
446.132	3855.56
446.24	3902.56
446.348	3776.56
446.456	3557.56
446.564	3732.56
446.671	3740.56
446.779	3547.56
446.887	3575.56
446.995	3547.56
447.102	3576.56
447.21	3564.56
447.318	3603.56
447.426	3484.56
447.533	3853.56
447.641	5072.56
447.749	3662.56
447.856	3511.56
447.964	3584.56
448.072	3656.56
448.179	3497.56
448.287	3555.56
448.395	3600.56
448.502	3454.56
448.61	3494.56
448.718	3552.56
448.825	3572.56
448.933	3440.56
449.04	3595.56
449.148	3571.56
449.256	3476.56
449.363	3707.56
449.471	3619.56
449.578	3795.56
449.686	3643.56
449.793	3864.56
449.901	3680.56
450.008	3730.56
450.116	3888.56
450.223	3781.56
450.331	3971.56
450.438	4027.56
450.546	4008.56
450.653	4071.56
450.76	4200.56
450.868	4144.56
450.975	4386.56
451.083	4060.56
451.19	4224.56
451.297	4160.56
451.405	4201.56
451.512	4203.56
451.619	4330.56
451.727	4274.56
451.834	4177.56
451.941	4232.56
452.049	4074.56
452.156	4210.56
452.263	4296.56
452.371	4277.56
452.478	4354.56
452.585	4407.56
452.692	4232.56
452.8	4374.56
452.907	4606.56
453.014	4388.56
453.121	4437.56
453.229	4444.56
453.336	4451.56
453.443	4451.56
453.55	4374.56
453.657	4346.56
453.765	4528.56
453.872	4466.56
453.979	4565.56
454.086	4472.56
454.193	4579.56
454.3	4505.56
454.407	4646.56
454.514	4739.56
454.621	4600.56
454.729	4542.56
454.836	4552.56
454.943	4707.56
455.05	4630.56
455.157	4724.56
455.264	4528.56
455.371	4744.56
455.478	4708.56
455.585	6206.56
455.692	4986.56
455.799	5022.56
455.906	4750.56
456.013	4681.56
456.12	4670.56
456.227	4810.56
456.334	4984.56
456.44	5054.56
456.547	4948.56
456.654	4879.56
456.761	4929.56
456.868	5028.56
456.975	5008.56
457.082	5108.56
457.189	4897.56
457.296	5042.56
457.402	5124.56
457.509	5024.56
457.616	5066.56
457.723	5440.56
457.83	5248.56
457.936	5259.56
458.043	5715.56
458.15	5377.56
458.257	5640.56
458.363	5681.56
458.47	5785.56
458.577	5820.56
458.684	5858.56
458.79	6154.56
458.897	6287.56
459.004	6471.56
459.11	6487.56
459.217	6425.56
459.324	6636.56
459.43	6773.56
459.537	7153.56
459.644	7023.56
459.75	7018.56
459.857	7770.56
459.964	7355.56
460.07	7495.56
460.177	7728.56
460.283	7663.56
460.39	7643.56
460.496	7639.56
460.603	7760.56
460.71	7567.56
460.816	7624.56
460.923	7438.56
461.029	7533.56
461.136	7496.56
461.242	7511.56
461.349	7540.56
461.455	7595.56
461.562	7904.56
461.668	7737.56
461.774	7704.56
461.881	7996.56
461.987	8109.56
462.094	8160.56
462.2	8399.56
462.307	8363.56
462.413	8190.56
462.519	8627.56
462.626	9392.56
462.732	9518.56
462.838	10152.56
462.945	10595.56
463.051	10434.56
463.157	9856.56
463.264	9535.56
463.37	9162.56
463.476	8817.56
463.583	8627.56
463.689	8670.56
463.795	8668.56
463.901	8629.56
464.008	9081.56
464.114	8945.56
464.22	8957.56
464.326	8791.56
464.433	8388.56
464.539	8332.56
464.645	8054.56
464.751	8152.56
464.857	7704.56
464.963	7248.56
465.07	7172.56
465.176	6748.56
465.282	6481.56
465.388	6552.56
465.494	6222.56
465.6	5977.56
465.706	5917.56
465.812	5888.56
465.918	5910.56
466.024	5772.56
466.131	5769.56
466.237	5439.56
466.343	5377.56
466.449	5333.56
466.555	5185.56
466.661	5206.56
466.767	5294.56
466.873	5107.56
466.979	5380.56
467.085	5105.56
467.191	5086.56
467.296	5071.56
467.402	4988.56
467.508	5039.56
467.614	5120.56
467.72	4836.56
467.826	4855.56
467.932	4718.56
468.038	4603.56
468.144	4671.56
468.25	4624.56
468.355	4554.56
468.461	4644.56
468.567	4545.56
468.673	4527.56
468.779	4565.56
468.885	4495.56
468.99	4520.56
469.096	4540.56
469.202	4695.56
469.308	4688.56
469.413	4816.56
469.519	4808.56
469.625	4690.56
469.731	4729.56
469.836	4792.56
469.942	4973.56
470.048	4840.56
470.153	4972.56
470.259	4940.56
470.365	5011.56
470.47	4891.56
470.576	4843.56
470.682	4690.56
470.787	4646.56
470.893	4670.56
470.999	4555.56
471.104	4440.56
471.21	4336.56
471.315	4238.56
471.421	4128.56
471.527	4409.56
471.632	4379.56
471.738	4125.56
471.843	4074.56
471.949	4172.56
472.054	4016.56
472.16	3968.56
472.265	4073.56
472.371	3931.56
472.476	3992.56
472.582	4067.56
472.687	3863.56
472.793	3855.56
472.898	3920.56
473.003	3802.56
473.109	3726.56
473.214	3683.56
473.32	3773.56
473.425	3874.56
473.53	3810.56
473.636	3786.56
473.741	3632.56
473.847	3654.56
473.952	3835.56
474.057	3782.56
474.163	3874.56
474.268	3714.56
474.373	3829.56
474.478	3578.56
474.584	3611.56
474.689	3825.56
474.794	3728.56
474.9	3941.56
475.005	3736.56
475.11	3867.56
475.215	3722.56
475.321	3752.56
475.426	3987.56
475.531	3928.56
475.636	3789.56
475.741	3782.56
475.846	3961.56
475.952	3984.56
476.057	3854.56
476.162	3929.56
476.267	4015.56
476.372	4184.56
476.477	3801.56
476.582	4019.56
476.687	3915.56
476.793	3973.56
476.898	3966.56
477.003	3932.56
477.108	4046.56
477.213	4003.56
477.318	4031.56
477.423	4218.56
477.528	4295.56
477.633	4394.56
477.738	4366.56
477.843	4353.56
477.948	4448.56
478.053	4495.56
478.158	4574.56
478.263	4584.56
478.368	4545.56
478.473	4769.56
478.578	4713.56
478.682	4686.56
478.787	4792.56
478.892	4795.56
478.997	4874.56
479.102	4879.56
479.207	4604.56
479.312	4900.56
479.417	4793.56
479.521	4803.56
479.626	4890.56
479.731	4896.56
479.836	5015.56
479.941	5169.56
480.045	5320.56
480.15	5403.56
480.255	5279.56
480.36	5313.56
480.465	5337.56
480.569	5457.56
480.674	5154.56
480.779	4943.56
480.883	4985.56
480.988	5018.56
481.093	4939.56
481.197	4769.56
481.302	4811.56
481.407	4844.56
481.511	6929.56
481.616	4894.56
481.721	4738.56
481.825	5049.56
481.93	4741.56
482.035	4720.56
482.139	4897.56
482.244	4958.56
482.348	4863.56
482.453	4976.56
482.557	5020.56
482.662	4852.56
482.767	4819.56
482.871	4973.56
482.976	5013.56
483.08	5081.56
483.185	5287.56
483.289	5136.56
483.394	5191.56
483.498	5205.56
483.603	5152.56
483.707	5216.56
483.811	5319.56
483.916	5499.56
484.02	5386.56
484.125	5462.56
484.229	5554.56
484.333	5517.56
484.438	5441.56
484.542	5551.56
484.647	5618.56
484.751	5783.56
484.855	5724.56
484.96	5802.56
485.064	5810.56
485.168	5894.56
485.273	5946.56
485.377	5916.56
485.481	6185.56
485.585	6119.56
485.69	6051.56
485.794	6130.56
485.898	6180.56
486.002	6144.56
486.107	6123.56
486.211	6108.56
486.315	6172.56
486.419	6244.56
486.524	6344.56
486.628	6244.56
486.732	6157.56
486.836	6145.56
486.94	6282.56
487.044	6086.56
487.148	6228.56
487.253	6136.56
487.357	6231.56
487.461	6403.56
487.565	6186.56
487.669	6160.56
487.773	6084.56
487.877	6233.56
487.981	6309.56
488.085	6212.56
488.189	6091.56
488.293	6403.56
488.397	6621.56
488.501	6242.56
488.605	6056.56
488.709	6133.56
488.813	6128.56
488.917	6005.56
489.021	6235.56
489.125	6472.56
489.229	6140.56
489.333	6441.56
489.437	6230.56
489.541	6322.56
489.645	6208.56
489.749	6279.56
489.853	6303.56
489.956	6250.56
490.06	6340.56
490.164	6228.56
490.268	6165.56
490.372	6312.56
490.476	6188.56
490.579	6188.56
490.683	7152.56
490.787	6266.56
490.891	6190.56
490.995	6335.56
491.098	6225.56
491.202	6288.56
491.306	6318.56
491.41	6266.56
491.513	6187.56
491.617	6220.56
491.721	6416.56
491.824	6512.56
491.928	6311.56
492.032	6711.56
492.136	6262.56
492.239	6308.56
492.343	6376.56
492.446	6796.56
492.55	6292.56
492.654	6240.56
492.757	6226.56
492.861	6313.56
492.965	6308.56
493.068	6337.56
493.172	6376.56
493.275	6319.56
493.379	6300.56
493.482	6434.56
493.586	6542.56
493.689	6638.56
493.793	6425.56
493.896	6403.56
494	6449.56
494.103	6481.56
494.207	6801.56
494.31	6857.56
494.414	6564.56
494.517	6436.56
494.621	6217.56
494.724	6315.56
494.828	6271.56
494.931	6171.56
495.034	6240.56
495.138	6415.56
495.241	6148.56
495.345	7175.56
495.448	6405.56
495.551	6171.56
495.655	6241.56
495.758	6164.56
495.861	6058.56
495.965	6247.56
496.068	6314.56
496.171	6296.56
496.274	6308.56
496.378	6319.56
496.481	6312.56
496.584	6376.56
496.687	6424.56
496.791	6565.56
496.894	6455.56
496.997	6488.56
497.1	6599.56
497.204	6759.56
497.307	6608.56
497.41	7029.56
497.513	7046.56
497.616	6833.56
497.719	6971.56
497.823	7049.56
497.926	7271.56
498.029	7482.56
498.132	7688.56
498.235	7834.56
498.338	7959.56
498.441	8512.56
498.544	8516.56
498.647	8818.56
498.75	9234.56
498.853	9525.56
498.956	9766.56
499.059	10347.56
499.163	10586.56
499.266	11070.56
499.369	11578.56
499.471	12245.56
499.574	12824.56
499.677	13378.56
499.78	14358.56
499.883	14581.56
499.986	14581.56
500.089	14581.56
500.192	14581.56
500.295	14581.56
500.398	14581.56
500.501	14581.56
500.604	14581.56
500.707	14581.56
500.809	14581.56
500.912	13796.56
501.015	12846.56
501.118	12061.56
501.221	11527.56
501.324	10830.56
501.426	10317.56
501.529	9624.56
501.632	9169.56
501.735	8855.56
501.837	8631.56
501.94	8319.56
502.043	8029.56
502.146	7875.56
502.248	7760.56
502.351	7511.56
502.454	7368.56
502.557	7018.56
502.659	6946.56
502.762	6728.56
502.865	6543.56
502.967	6257.56
503.07	6262.56
503.173	6237.56
503.275	6094.56
503.378	5849.56
503.48	5905.56
503.583	6049.56
503.686	5901.56
503.788	6155.56
503.891	5925.56
503.993	6235.56
504.096	5987.56
504.198	6150.56
504.301	6045.56
504.403	6075.56
504.506	6052.56
504.608	5884.56
504.711	5635.56
504.813	5613.56
504.916	5199.56
505.018	5172.56
505.121	5039.56
505.223	4964.56
505.326	4854.56
505.428	4964.56
505.531	4719.56
505.633	4667.56
505.735	4581.56
505.838	4606.56
505.94	4507.56
506.042	4420.56
506.145	4474.56
506.247	4510.56
506.35	4335.56
506.452	4448.56
506.554	4407.56
506.656	4429.56
506.759	4346.56
506.861	4364.56
506.963	4299.56
507.066	4346.56
507.168	4466.56
507.27	4156.56
507.372	4156.56
507.475	4295.56
507.577	4222.56
507.679	4089.56
507.781	4052.56
507.883	3996.56
507.986	3953.56
508.088	4083.56
508.19	4076.56
508.292	4050.56
508.394	3983.56
508.496	3923.56
508.598	3923.56
508.701	3903.56
508.803	4044.56
508.905	3931.56
509.007	3962.56
509.109	4011.56
509.211	3970.56
509.313	3879.56
509.415	3904.56
509.517	3909.56
509.619	3819.56
509.721	3970.56
509.823	3840.56
509.925	4049.56
510.027	3775.56
510.129	3907.56
510.231	3920.56
510.333	3723.56
510.435	3770.56
510.537	3835.56
510.639	3889.56
510.741	3848.56
510.843	3951.56
510.945	3787.56
511.047	3984.56
511.148	3966.56
511.25	3811.56
511.352	3875.56
511.454	3815.56
511.556	3924.56
511.658	3932.56
511.76	4004.56
511.861	4023.56
511.963	3745.56
512.065	3769.56
512.167	3761.56
512.268	4072.56
512.37	3956.56
512.472	3907.56
512.574	4000.56
512.676	3923.56
512.777	3874.56
512.879	3762.56
512.981	3871.56
513.082	3935.56
513.184	3873.56
513.286	4466.56
513.387	4030.56
513.489	4217.56
513.591	4022.56
513.692	4032.56
513.794	4075.56
513.896	3868.56
513.997	3940.56
514.099	3950.56
514.2	4038.56
514.302	4044.56
514.404	4092.56
514.505	3948.56
514.607	4150.56
514.708	4145.56
514.81	4219.56
514.911	4282.56
515.013	4296.56
515.114	4305.56
515.216	4243.56
515.317	4252.56
515.419	4304.56
515.52	4408.56
515.622	4391.56
515.723	4491.56
515.825	4656.56
515.926	4504.56
516.027	4557.56
516.129	4725.56
516.23	4831.56
516.332	4909.56
516.433	5088.56
516.534	5133.56
516.636	5210.56
516.737	5371.56
516.838	6726.56
516.94	5840.56
517.041	5882.56
517.142	6123.56
517.244	6154.56
517.345	6259.56
517.446	6355.56
517.547	6410.56
517.649	6287.56
517.75	6416.56
517.851	6235.56
517.952	6397.56
518.054	6088.56
518.155	6162.56
518.256	5769.56
518.357	5944.56
518.458	5576.56
518.56	5354.56
518.661	5429.56
518.762	5317.56
518.863	5345.56
518.964	5212.56
519.065	5102.56
519.166	4975.56
519.268	4942.56
519.369	5282.56
519.47	4836.56
519.571	4877.56
519.672	4731.56
519.773	4730.56
519.874	4735.56
519.975	4757.56
520.076	4694.56
520.177	4783.56
520.278	4617.56
520.379	4815.56
520.48	4562.56
520.581	4562.56
520.682	4606.56
520.783	4559.56
520.884	4684.56
520.985	4559.56
521.086	4511.56
521.187	4547.56
521.288	4522.56
521.389	4558.56
521.489	4466.56
521.59	4453.56
521.691	4543.56
521.792	4518.56
521.893	4612.56
521.994	4678.56
522.095	4484.56
522.195	4514.56
522.296	4642.56
522.397	4525.56
522.498	4485.56
522.599	4459.56
522.699	4517.56
522.8	4440.56
522.901	4588.56
523.002	4520.56
523.102	4660.56
523.203	4515.56
523.304	4706.56
523.405	4488.56
523.505	4474.56
523.606	4551.56
523.707	4579.56
523.807	4413.56
523.908	4513.56
524.009	4656.56
524.109	4494.56
524.21	4489.56
524.31	4688.56
524.411	4616.56
524.512	4643.56
524.612	4603.56
524.713	4676.56
524.813	4466.56
524.914	4785.56
525.014	10834.56
525.115	4956.56
525.216	4495.56
525.316	4575.56
525.417	4526.56
525.517	4523.56
525.618	4592.56
525.718	4464.56
525.819	4491.56
525.919	4571.56
526.019	4470.56
526.12	4594.56
526.22	4453.56
526.321	4452.56
526.421	4348.56
526.522	4522.56
526.622	4457.56
526.722	4483.56
526.823	4555.56
526.923	4530.56
527.023	4570.56
527.124	4471.56
527.224	4614.56
527.324	4423.56
527.425	4517.56
527.525	4387.56
527.625	4497.56
527.726	4485.56
527.826	4597.56
527.926	4580.56
528.026	4516.56
528.127	4407.56
528.227	4629.56
528.327	4506.56
528.427	4477.56
528.528	4608.56
528.628	4531.56
528.728	4432.56
528.828	4537.56
528.928	4637.56
529.029	4452.56
529.129	4575.56
529.229	4572.56
529.329	4490.56
529.429	4644.56
529.529	4714.56
529.629	4559.56
529.729	4542.56
529.829	4713.56
529.93	4473.56
530.03	4499.56
530.13	4449.56
530.23	4544.56
530.33	4625.56
530.43	4473.56
530.53	4596.56
530.63	4562.56
530.73	4386.56
530.83	4375.56
530.93	4455.56
531.03	4414.56
531.13	4539.56
531.23	4425.56
531.33	4427.56
531.429	4587.56
531.529	4659.56
531.629	4503.56
531.729	4337.56
531.829	4431.56
531.929	4359.56
532.029	4376.56
532.129	4497.56
532.229	4408.56
532.328	4378.56
532.428	4413.56
532.528	4311.56
532.628	4280.56
532.728	4343.56
532.827	4285.56
532.927	4378.56
533.027	4248.56
533.127	4483.56
533.227	4367.56
533.326	4322.56
533.426	4241.56
533.526	4287.56
533.625	4335.56
533.725	4584.56
533.825	4382.56
533.924	4120.56
534.024	4027.56
534.124	4144.56
534.223	4178.56
534.323	4613.56
534.423	4152.56
534.522	4130.56
534.622	4023.56
534.722	4124.56
534.821	4092.56
534.921	4026.56
535.02	4012.56
535.12	4090.56
535.219	4104.56
535.319	4031.56
535.419	4138.56
535.518	3956.56
535.618	3977.56
535.717	4056.56
535.817	3780.56
535.916	3713.56
536.016	3919.56
536.115	3727.56
536.215	3785.56
536.314	3721.56
536.413	3685.56
536.513	3703.56
536.612	3753.56
536.712	3694.56
536.811	3623.56
536.91	3640.56
537.01	3643.56
537.109	3647.56
537.209	3661.56
537.308	3608.56
537.407	3595.56
537.507	3628.56
537.606	3620.56
537.705	3688.56
537.805	3509.56
537.904	3481.56
538.003	3629.56
538.102	3732.56
538.202	3626.56
538.301	3672.56
538.4	3651.56
538.499	3472.56
538.599	3562.56
538.698	3812.56
538.797	3477.56
538.896	3620.56
538.995	3554.56
539.095	3391.56
539.194	3669.56
539.293	3472.56
539.392	3437.56
539.491	3437.56
539.59	3453.56
539.689	3628.56
539.789	3491.56
539.888	3336.56
539.987	3265.56
540.086	3400.56
540.185	3410.56
540.284	3459.56
540.383	3341.56
540.482	3291.56
540.581	3310.56
540.68	3296.56
540.779	3354.56
540.878	3368.56
540.977	3387.56
541.076	3288.56
541.175	3338.56
541.274	3522.56
541.373	3378.56
541.472	3363.56
541.571	3193.56
541.67	4599.56
541.769	3375.56
541.868	3356.56
541.966	3347.56
542.065	3272.56
542.164	3226.56
542.263	3150.56
542.362	3173.56
542.461	3301.56
542.56	3241.56
542.658	3244.56
542.757	3244.56
542.856	3176.56
542.955	3149.56
543.054	3092.56
543.152	3378.56
543.251	3182.56
543.35	3372.56
543.449	3305.56
543.547	3216.56
543.646	3106.56
543.745	3265.56
543.843	3283.56
543.942	3194.56
544.041	3084.56
544.14	3216.56
544.238	3300.56
544.337	3455.56
544.436	3324.56
544.534	3334.56
544.633	3216.56
544.731	3286.56
544.83	3258.56
544.929	3225.56
545.027	3332.56
545.126	3280.56
545.224	3352.56
545.323	3287.56
545.421	3309.56
545.52	3243.56
545.619	3226.56
545.717	3278.56
545.816	3329.56
545.914	3315.56
546.013	3547.56
546.111	3489.56
546.209	3270.56
546.308	3200.56
546.406	3191.56
546.505	3397.56
546.603	3301.56
546.702	3168.56
546.8	3147.56
546.899	3186.56
546.997	3309.56
547.095	3297.56
547.194	3277.56
547.292	3284.56
547.39	3279.56
547.489	3256.56
547.587	3622.56
547.685	3248.56
547.784	3569.56
547.882	3377.56
547.98	3201.56
548.079	3417.56
548.177	3248.56
548.275	3161.56
548.373	3417.56
548.472	3205.56
548.57	3287.56
548.668	3321.56
548.766	3265.56
548.864	3412.56
548.963	3268.56
549.061	3423.56
549.159	3274.56
549.257	3460.56
549.355	3316.56
549.454	3337.56
549.552	3502.56
549.65	3268.56
549.748	3323.56
549.846	3337.56
549.944	3292.56
550.042	3189.56
550.14	3218.56
550.238	3247.56
550.336	3128.56
550.434	3164.56
550.532	3223.56
550.631	3284.56
550.729	3181.56
550.827	3211.56
550.925	3092.56
551.023	3184.56
551.121	3050.56
551.218	3158.56
551.316	3170.56
551.414	3182.56
551.512	3197.56
551.61	3287.56
551.708	3345.56
551.806	3314.56
551.904	3232.56
552.002	3264.56
552.1	3348.56
552.198	3271.56
552.296	3560.56
552.393	3644.56
552.491	3648.56
552.589	3661.56
552.687	3769.56
552.785	3671.56
552.882	3765.56
552.98	3981.56
553.078	3823.56
553.176	3924.56
553.274	3704.56
553.371	3783.56
553.469	3736.56
553.567	3635.56
553.665	3647.56
553.762	4064.56
553.86	3590.56
553.958	3533.56
554.055	3490.56
554.153	3520.56
554.251	3463.56
554.348	3491.56
554.446	3342.56
554.544	3306.56
554.641	3773.56
554.739	3252.56
554.837	3274.56
554.934	3276.56
555.032	3141.56
555.129	3131.56
555.227	3404.56
555.324	4607.56
555.422	3276.56
555.519	3017.56
555.617	3134.56
555.715	2975.56
555.812	3532.56
555.91	3096.56
556.007	3097.56
556.105	3004.56
556.202	3066.56
556.299	2936.56
556.397	3009.56
556.494	2991.56
556.592	2947.56
556.689	3037.56
556.787	2924.56
556.884	2892.56
556.981	2917.56
557.079	2902.56
557.176	3019.56
557.273	2989.56
557.371	3015.56
557.468	2929.56
557.566	3058.56
557.663	2949.56
557.76	3001.56
557.857	2987.56
557.955	2953.56
558.052	3049.56
558.149	3165.56
558.247	3139.56
558.344	2945.56
558.441	2930.56
558.538	2869.56
558.636	2922.56
558.733	2972.56
558.83	2922.56
558.927	2890.56
559.024	2924.56
559.122	2907.56
559.219	2911.56
559.316	3049.56
559.413	3159.56
559.51	2868.56
559.607	2950.56
559.704	3043.56
559.801	2970.56
559.899	2965.56
559.996	3328.56
560.093	2956.56
560.19	2872.56
560.287	2982.56
560.384	3165.56
560.481	2928.56
560.578	3005.56
560.675	3043.56
560.772	3115.56
560.869	2942.56
560.966	3091.56
561.063	3016.56
561.16	3112.56
561.257	3085.56
561.354	3032.56
561.451	2954.56
561.548	3094.56
561.645	3294.56
561.742	3042.56
561.838	3055.56
561.935	3075.56
562.032	3052.56
562.129	3009.56
562.226	3090.56
562.323	3069.56
562.42	3134.56
562.516	3161.56
562.613	3084.56
562.71	3184.56
562.807	4007.56
562.904	3160.56
563	3196.56
563.097	3184.56
563.194	3201.56
563.291	3194.56
563.387	3179.56
563.484	3343.56
563.581	3279.56
563.678	3186.56
563.774	3732.56
563.871	3282.56
563.968	3309.56
564.064	3393.56
564.161	3336.56
564.258	3378.56
564.354	3594.56
564.451	3507.56
564.548	3480.56
564.644	3555.56
564.741	3565.56
564.837	3569.56
564.934	3554.56
565.031	3723.56
565.127	3748.56
565.224	3907.56
565.32	4059.56
565.417	3936.56
565.513	4091.56
565.61	4283.56
565.706	4367.56
565.803	4419.56
565.899	4455.56
565.996	4824.56
566.092	4763.56
566.189	4946.56
566.285	5252.56
566.382	5453.56
566.478	5665.56
566.574	5876.56
566.671	5965.56
566.767	5800.56
566.864	5719.56
566.96	5937.56
567.056	5844.56
567.153	6268.56
567.249	6228.56
567.345	6490.56
567.442	6686.56
567.538	6986.56
567.634	7138.56
567.731	7184.56
567.827	7204.56
567.923	6970.56
568.019	6599.56
568.116	6268.56
568.212	5988.56
568.308	5735.56
568.404	5579.56
568.501	5328.56
568.597	5050.56
568.693	4786.56
568.789	5461.56
568.885	4604.56
568.982	4397.56
569.078	4201.56
569.174	4165.56
569.27	3912.56
569.366	4035.56
569.462	3940.56
569.558	3720.56
569.655	3691.56
569.751	3660.56
569.847	3619.56
569.943	3633.56
570.039	3515.56
570.135	4145.56
570.231	3495.56
570.327	3784.56
570.423	3708.56
570.519	3564.56
570.615	3538.56
570.711	3736.56
570.807	3664.56
570.903	3595.56
570.999	3596.56
571.095	3496.56
571.191	3349.56
571.287	3426.56
571.383	3451.56
571.479	3361.56
571.574	3327.56
571.67	3239.56
571.766	3353.56
571.862	3058.56
571.958	3122.56
572.054	3146.56
572.15	2983.56
572.246	2987.56
572.341	3105.56
572.437	2890.56
572.533	2965.56
572.629	2972.56
572.725	2895.56
572.82	2844.56
572.916	3116.56
573.012	2885.56
573.108	3017.56
573.203	2899.56
573.299	2748.56
573.395	2787.56
573.49	2738.56
573.586	2788.56
573.682	2676.56
573.778	2958.56
573.873	2782.56
573.969	2730.56
574.065	2706.56
574.16	2819.56
574.256	2713.56
574.351	2784.56
574.447	2721.56
574.543	2696.56
574.638	2835.56
574.734	2818.56
574.829	2960.56
574.925	2630.56
575.02	2635.56
575.116	2700.56
575.212	2627.56
575.307	2781.56
575.403	2636.56
575.498	2616.56
575.594	2543.56
575.689	2657.56
575.784	2680.56
575.88	2600.56
575.975	2665.56
576.071	2554.56
576.166	2462.56
576.262	2577.56
576.357	2512.56
576.452	2637.56
576.548	2532.56
576.643	2531.56
576.739	2504.56
576.834	2471.56
576.929	2557.56
577.025	3169.56
577.12	2414.56
577.215	2390.56
577.311	2434.56
577.406	2428.56
577.501	2585.56
577.597	2317.56
577.692	2444.56
577.787	2481.56
577.882	2380.56
577.978	2369.56
578.073	2289.56
578.168	2288.56
578.263	2280.56
578.358	2287.56
578.454	2253.56
578.549	2232.56
578.644	2208.56
578.739	2314.56
578.834	2222.56
578.929	2205.56
579.025	2210.56
579.12	2276.56
579.215	2443.56
579.31	2404.56
579.405	2173.56
579.5	2228.56
579.595	2175.56
579.69	2112.56
579.785	2148.56
579.88	2087.56
579.975	2141.56
580.07	2183.56
580.165	2089.56
580.26	2263.56
580.355	2109.56
580.45	2085.56
580.545	2075.56
580.64	2101.56
580.735	2156.56
580.83	2106.56
580.925	2005.56
581.02	2015.56
581.115	1995.56
581.21	1965.56
581.305	2074.56
581.4	1994.56
581.495	2015.56
581.589	2082.56
581.684	1953.56
581.779	2116.56
581.874	2098.56
581.969	2023.56
582.064	1934.56
582.158	1948.56
582.253	1912.56
582.348	1975.56
582.443	1991.56
582.537	1983.56
582.632	2123.56
582.727	1947.56
582.822	1969.56
582.916	1903.56
583.011	1899.56
583.106	1967.56
583.201	1894.56
583.295	1918.56
583.39	1825.56
583.485	1830.56
583.579	4000.56
583.674	2065.56
583.769	2195.56
583.863	1852.56
583.958	1838.56
584.052	1808.56
584.147	1793.56
584.242	1759.56
584.336	1809.56
584.431	2036.56
584.525	1800.56
584.62	2000.56
584.714	1927.56
584.809	1813.56
584.903	1930.56
584.998	1897.56
585.092	1698.56
585.187	1797.56
585.281	1789.56
585.376	1822.56
585.47	1817.56
585.565	1821.56
585.659	1702.56
585.754	1701.56
585.848	1786.56
585.942	1774.56
586.037	1716.56
586.131	3124.56
586.226	1920.56
586.32	1796.56
586.414	1673.56
586.509	1938.56
586.603	1840.56
586.697	1780.56
586.792	1687.56
586.886	1657.56
586.98	1828.56
587.075	1765.56
587.169	1715.56
587.263	1889.56
587.357	1748.56
587.452	1709.56
587.546	1853.56
587.64	1741.56
587.734	1820.56
587.829	1842.56
587.923	1682.56
588.017	1777.56
588.111	1805.56
588.205	1853.56
588.3	1816.56
588.394	1849.56
588.488	1910.56
588.582	2125.56
588.676	2412.56
588.77	4018.56
588.864	8484.56
588.958	8390.56
589.052	5815.56
589.147	3688.56
589.241	2812.56
589.335	2923.56
589.429	5681.56
589.523	6732.56
589.617	5275.56
589.711	3463.56
589.805	2450.56
589.899	2290.56
589.993	1848.56
590.087	1827.56
590.181	1776.56
590.275	1789.56
590.369	1768.56
590.462	1700.56
590.556	1632.56
590.65	1657.56
590.744	1680.56
590.838	1702.56
590.932	1673.56
591.026	1785.56
591.12	1975.56
591.214	1683.56
591.307	1748.56
591.401	1742.56
591.495	1776.56
591.589	1709.56
591.683	1713.56
591.777	1848.56
591.87	2144.56
591.964	1841.56
592.058	1864.56
592.152	1893.56
592.245	1851.56
592.339	2043.56
592.433	2094.56
592.527	1980.56
592.62	1930.56
592.714	1992.56
592.808	2049.56
592.901	2131.56
592.995	2042.56
593.089	2328.56
593.182	2170.56
593.276	2108.56
593.37	2040.56
593.463	2010.56
593.557	2077.56
593.65	2008.56
593.744	2092.56
593.837	2259.56
593.931	2082.56
594.025	5800.56
594.118	2463.56
594.212	2104.56
594.305	1958.56
594.399	2013.56
594.492	2363.56
594.586	1951.56
594.679	1874.56
594.773	1911.56
594.866	1851.56
594.96	1774.56
595.053	1731.56
595.146	1728.56
595.24	1604.56
595.333	1620.56
595.427	1585.56
595.52	1572.56
595.614	1761.56
595.707	1605.56
595.8	1547.56
595.894	1537.56
595.987	1543.56
596.08	1466.56
596.174	1869.56
596.267	1603.56
596.36	1574.56
596.454	1569.56
596.547	1493.56
596.64	1391.56
596.733	1426.56
596.827	1451.56
596.92	1443.56
597.013	1279.56
597.106	1293.56
597.2	1303.56
597.293	1291.56
597.386	1585.56
597.479	1407.56
597.572	1365.56
597.666	1308.56
597.759	1339.56
597.852	1466.56
597.945	1234.56
598.038	1291.56
598.131	1351.56
598.224	1297.56
598.317	1359.56
598.411	1341.56
598.504	1219.56
598.597	1329.56
598.69	1287.56
598.783	1262.56
598.876	1315.56
598.969	1293.56
599.062	1211.56
599.155	1305.56
599.248	1228.56
599.341	1309.56
599.434	1214.56
599.527	1279.56
599.62	1264.56
599.713	1197.56
599.806	1322.56
599.899	1445.56
599.991	1223.56
600.084	1513.56
600.177	1227.56
600.27	1248.56
600.363	1369.56
600.456	1224.56
600.549	1253.56
600.642	1137.56
600.734	1144.56
600.827	1238.56
600.92	1333.56
601.013	1232.56
601.106	1304.56
601.199	1199.56
601.291	1151.56
601.384	1179.56
601.477	1418.56
601.57	1293.56
601.662	1109.56
601.755	1283.56
601.848	1249.56
601.94	1133.56
602.033	1366.56
602.126	1154.56
602.219	1106.56
602.311	1369.56
602.404	1193.56
602.497	1115.56
602.589	1144.56
602.682	1247.56
602.774	1245.56
602.867	1172.56
602.96	1169.56
603.052	1166.56
603.145	1195.56
603.237	1217.56
603.33	1182.56
603.422	1326.56
603.515	1112.56
603.608	1244.56
603.7	1168.56
603.793	1182.56
603.885	1268.56
603.978	1137.56
604.07	1128.56
604.163	1157.56
604.255	1148.56
604.347	1119.56
604.44	1101.56
604.532	1184.56
604.625	1158.56
604.717	1085.56
604.81	1232.56
604.902	1129.56
604.994	1072.56
605.087	1126.56
605.179	1080.56
605.271	1148.56
605.364	1179.56
605.456	1140.56
605.548	1143.56
605.641	1128.56
605.733	1112.56
605.825	1083.56
605.918	1028.56
606.01	1298.56
606.102	1604.56
606.194	1109.56
606.287	1315.56
606.379	1072.56
606.471	1105.56
606.563	1196.56
606.655	1162.56
606.748	1153.56
606.84	1112.56
606.932	1195.56
607.024	1072.56
607.116	1090.56
607.208	1138.56
607.301	1152.56
607.393	1049.56
607.485	1129.56
607.577	1084.56
607.669	1199.56
607.761	1230.56
607.853	1431.56
607.945	1076.56
608.037	1031.56
608.129	1115.56
608.221	1036.56
608.313	1007.56
608.405	1190.56
608.497	1099.56
608.589	1095.56
608.681	1139.56
608.773	1123.56
608.865	1118.56
608.957	1136.56
609.049	1084.56
609.141	1181.56
609.233	1127.56
609.325	1085.56
609.417	1049.56
609.509	1176.56
609.601	1242.56
609.693	1205.56
609.784	1059.56
609.876	1099.56
609.968	1089.56
610.06	3531.56
610.152	1340.56
610.244	1339.56
610.335	1051.56
610.427	1083.56
610.519	993.56
610.611	1043.56
610.702	1054.56
610.794	1112.56
610.886	1059.56
610.978	1075.56
611.069	1673.56
611.161	1050.56
611.253	1060.56
611.344	981.56
611.436	934.56
611.528	1076.56
611.62	947.56
611.711	945.56
611.803	896.56
611.894	921.56
611.986	903.56
612.078	907.56
612.169	934.56
612.261	920.56
612.352	813.56
612.444	805.56
612.536	981.56
612.627	790.56
612.719	742.56
612.81	776.56
612.902	781.56
612.993	796.56
613.085	793.56
613.176	738.56
613.268	700.56
613.359	683.56
613.451	728.56
613.542	707.56
613.634	667.56
613.725	717.56
613.816	782.56
613.908	632.56
613.999	649.56
614.091	569.56
614.182	554.56
614.273	664.56
614.365	617.56
614.456	503.56
614.547	549.56
614.639	533.56
614.73	485.56
614.821	587.56
614.913	506.56
615.004	394.56
615.095	425.56
615.187	395.56
