Data from 42g_HRC06701__21__508.txt Node

Date: Thu Apr 18 02:42:24 CDT 2024
User: Estudiantes 2
Spectrometer: HR+C0670
Trigger mode: 4
Integration Time (sec): 1.000000E0
Scans to average: 1
Electric dark correction enabled: true
Nonlinearity correction enabled: false
Boxcar width: 0
XAxis mode: Wavelengths
Number of Pixels in Spectrum: 2048
>>>>>Begin Spectral Data<<<<<
407.81	-146.44
407.921	-146.44
408.032	-146.44
408.143	-129.44
408.254	-161.44
408.365	26.56
408.476	339.56
408.587	-22.44
408.699	-18.44
408.81	27.56
408.921	-69.44
409.032	-46.44
409.143	47.56
409.254	46.56
409.365	78.56
409.476	-35.44
409.587	16.56
409.698	46.56
409.809	77.56
409.92	-22.44
410.031	-38.44
410.142	61.56
410.253	56.56
410.364	47.56
410.475	-28.44
410.585	92.56
410.696	147.56
410.807	74.56
410.918	105.56
411.029	192.56
411.14	147.56
411.251	98.56
411.362	225.56
411.472	146.56
411.583	148.56
411.694	192.56
411.805	107.56
411.916	120.56
412.026	213.56
412.137	168.56
412.248	120.56
412.359	100.56
412.47	100.56
412.58	79.56
412.691	148.56
412.802	197.56
412.912	102.56
413.023	115.56
413.134	124.56
413.245	226.56
413.355	97.56
413.466	133.56
413.577	142.56
413.687	213.56
413.798	64.56
413.909	219.56
414.019	142.56
414.13	123.56
414.24	113.56
414.351	147.56
414.462	291.56
414.572	211.56
414.683	176.56
414.793	87.56
414.904	496.56
415.014	154.56
415.125	101.56
415.235	135.56
415.346	297.56
415.456	259.56
415.567	117.56
415.677	177.56
415.788	167.56
415.898	103.56
416.009	149.56
416.119	147.56
416.23	93.56
416.34	90.56
416.45	157.56
416.561	945.56
416.671	276.56
416.782	83.56
416.892	67.56
417.002	138.56
417.113	202.56
417.223	142.56
417.333	105.56
417.444	126.56
417.554	155.56
417.664	178.56
417.775	75.56
417.885	132.56
417.995	135.56
418.106	250.56
418.216	240.56
418.326	152.56
418.436	132.56
418.547	151.56
418.657	89.56
418.767	175.56
418.877	122.56
418.987	142.56
419.098	125.56
419.208	110.56
419.318	243.56
419.428	161.56
419.538	120.56
419.648	206.56
419.759	174.56
419.869	224.56
419.979	183.56
420.089	145.56
420.199	117.56
420.309	195.56
420.419	208.56
420.529	116.56
420.639	717.56
420.749	292.56
420.859	217.56
420.969	183.56
421.079	465.56
421.189	223.56
421.299	238.56
421.409	138.56
421.519	236.56
421.629	228.56
421.739	181.56
421.849	94.56
421.959	48.56
422.069	181.56
422.179	185.56
422.289	154.56
422.399	171.56
422.509	287.56
422.619	3827.56
422.729	537.56
422.838	145.56
422.948	168.56
423.058	105.56
423.168	152.56
423.278	158.56
423.388	151.56
423.498	202.56
423.607	217.56
423.717	425.56
423.827	502.56
423.937	237.56
424.046	268.56
424.156	244.56
424.266	222.56
424.376	372.56
424.485	304.56
424.595	209.56
424.705	145.56
424.815	184.56
424.924	624.56
425.034	282.56
425.144	128.56
425.253	206.56
425.363	235.56
425.473	238.56
425.582	141.56
425.692	183.56
425.801	143.56
425.911	301.56
426.021	184.56
426.13	319.56
426.24	405.56
426.349	288.56
426.459	247.56
426.568	156.56
426.678	333.56
426.787	235.56
426.897	154.56
427.006	186.56
427.116	299.56
427.225	184.56
427.335	266.56
427.444	217.56
427.554	310.56
427.663	193.56
427.773	149.56
427.882	301.56
427.992	158.56
428.101	158.56
428.21	228.56
428.32	199.56
428.429	114.56
428.539	509.56
428.648	177.56
428.757	254.56
428.867	239.56
428.976	369.56
429.085	226.56
429.195	182.56
429.304	243.56
429.413	266.56
429.523	269.56
429.632	312.56
429.741	229.56
429.85	171.56
429.96	277.56
430.069	246.56
430.178	198.56
430.287	507.56
430.397	265.56
430.506	190.56
430.615	231.56
430.724	312.56
430.833	215.56
430.943	256.56
431.052	306.56
431.161	180.56
431.27	201.56
431.379	232.56
431.488	391.56
431.597	283.56
431.706	298.56
431.816	248.56
431.925	225.56
432.034	207.56
432.143	318.56
432.252	229.56
432.361	348.56
432.47	318.56
432.579	235.56
432.688	228.56
432.797	278.56
432.906	198.56
433.015	281.56
433.124	671.56
433.233	349.56
433.342	305.56
433.451	250.56
433.56	283.56
433.669	218.56
433.778	243.56
433.886	306.56
433.995	240.56
434.104	392.56
434.213	311.56
434.322	203.56
434.431	351.56
434.54	272.56
434.649	414.56
434.757	264.56
434.866	238.56
434.975	363.56
435.084	331.56
435.193	351.56
435.301	570.56
435.41	657.56
435.519	752.56
435.628	343.56
435.737	241.56
435.845	189.56
435.954	204.56
436.063	333.56
436.171	250.56
436.28	257.56
436.389	393.56
436.498	262.56
436.606	266.56
436.715	462.56
436.823	215.56
436.932	201.56
437.041	258.56
437.149	306.56
437.258	253.56
437.367	227.56
437.475	251.56
437.584	486.56
437.692	272.56
437.801	1925.56
437.91	439.56
438.018	240.56
438.127	202.56
438.235	283.56
438.344	233.56
438.452	263.56
438.561	215.56
438.669	196.56
438.778	199.56
438.886	246.56
438.995	175.56
439.103	205.56
439.212	247.56
439.32	199.56
439.428	207.56
439.537	279.56
439.645	271.56
439.754	244.56
439.862	240.56
439.97	258.56
440.079	230.56
440.187	145.56
440.295	340.56
440.404	217.56
440.512	205.56
440.62	321.56
440.729	270.56
440.837	306.56
440.945	961.56
441.054	339.56
441.162	213.56
441.27	321.56
441.378	253.56
441.487	224.56
441.595	574.56
441.703	419.56
441.811	309.56
441.92	243.56
442.028	284.56
442.136	261.56
442.244	267.56
442.352	288.56
442.461	175.56
442.569	134.56
442.677	195.56
442.785	287.56
442.893	234.56
443.001	194.56
443.109	206.56
443.217	168.56
443.325	198.56
443.434	846.56
443.542	462.56
443.65	219.56
443.758	421.56
443.866	253.56
443.974	482.56
444.082	335.56
444.19	256.56
444.298	278.56
444.406	307.56
444.514	336.56
444.622	296.56
444.73	332.56
444.838	345.56
444.946	310.56
445.054	243.56
445.161	255.56
445.269	280.56
445.377	304.56
445.485	314.56
445.593	305.56
445.701	491.56
445.809	337.56
445.917	336.56
446.025	185.56
446.132	362.56
446.24	411.56
446.348	254.56
446.456	205.56
446.564	221.56
446.671	254.56
446.779	239.56
446.887	221.56
446.995	267.56
447.102	263.56
447.21	291.56
447.318	312.56
447.426	221.56
447.533	467.56
447.641	1558.56
447.749	386.56
447.856	245.56
447.964	284.56
448.072	358.56
448.179	217.56
448.287	302.56
448.395	313.56
448.502	213.56
448.61	254.56
448.718	277.56
448.825	311.56
448.933	229.56
449.04	228.56
449.148	281.56
449.256	242.56
449.363	284.56
449.471	294.56
449.578	303.56
449.686	210.56
449.793	386.56
449.901	260.56
450.008	292.56
450.116	387.56
450.223	237.56
450.331	278.56
450.438	314.56
450.546	310.56
450.653	342.56
450.76	327.56
450.868	333.56
450.975	464.56
451.083	315.56
451.19	405.56
451.297	330.56
451.405	328.56
451.512	374.56
451.619	390.56
451.727	393.56
451.834	319.56
451.941	307.56
452.049	283.56
452.156	292.56
452.263	381.56
452.371	254.56
452.478	344.56
452.585	477.56
452.692	263.56
452.8	328.56
452.907	499.56
453.014	338.56
453.121	290.56
453.229	422.56
453.336	387.56
453.443	418.56
453.55	304.56
453.657	417.56
453.765	379.56
453.872	338.56
453.979	431.56
454.086	310.56
454.193	361.56
454.3	354.56
454.407	470.56
454.514	449.56
454.621	381.56
454.729	333.56
454.836	296.56
454.943	359.56
455.05	462.56
455.157	451.56
455.264	298.56
455.371	394.56
455.478	368.56
455.585	1706.56
455.692	568.56
455.799	481.56
455.906	329.56
456.013	329.56
456.12	338.56
456.227	342.56
456.334	404.56
456.44	476.56
456.547	365.56
456.654	324.56
456.761	418.56
456.868	455.56
456.975	417.56
457.082	368.56
457.189	286.56
457.296	392.56
457.402	361.56
457.509	344.56
457.616	390.56
457.723	585.56
457.83	376.56
457.936	337.56
458.043	646.56
458.15	411.56
458.257	456.56
458.363	425.56
458.47	409.56
458.577	466.56
458.684	391.56
458.79	488.56
458.897	470.56
459.004	489.56
459.11	418.56
459.217	463.56
459.324	534.56
459.43	569.56
459.537	769.56
459.644	469.56
459.75	464.56
459.857	878.56
459.964	474.56
460.07	511.56
460.177	515.56
460.283	581.56
460.39	698.56
460.496	562.56
460.603	583.56
460.71	505.56
460.816	464.56
460.923	549.56
461.029	527.56
461.136	536.56
461.242	553.56
461.349	515.56
461.455	475.56
461.562	820.56
461.668	628.56
461.774	511.56
461.881	580.56
461.987	568.56
462.094	530.56
462.2	583.56
462.307	628.56
462.413	534.56
462.519	512.56
462.626	669.56
462.732	600.56
462.838	609.56
462.945	701.56
463.051	648.56
463.157	608.56
463.264	599.56
463.37	649.56
463.476	606.56
463.583	600.56
463.689	549.56
463.795	553.56
463.901	622.56
464.008	758.56
464.114	570.56
464.22	531.56
464.326	622.56
464.433	574.56
464.539	543.56
464.645	501.56
464.751	731.56
464.857	542.56
464.963	446.56
465.07	612.56
465.176	494.56
465.282	502.56
465.388	649.56
465.494	417.56
465.6	450.56
465.706	422.56
465.812	422.56
465.918	448.56
466.024	401.56
466.131	513.56
466.237	416.56
466.343	348.56
466.449	390.56
466.555	322.56
466.661	331.56
466.767	371.56
466.873	401.56
466.979	526.56
467.085	389.56
467.191	423.56
467.296	337.56
467.402	353.56
467.508	421.56
467.614	506.56
467.72	353.56
467.826	345.56
467.932	365.56
468.038	311.56
468.144	425.56
468.25	366.56
468.355	259.56
468.461	377.56
468.567	274.56
468.673	335.56
468.779	399.56
468.885	319.56
468.99	284.56
469.096	321.56
469.202	492.56
469.308	340.56
469.413	395.56
469.519	382.56
469.625	328.56
469.731	376.56
469.836	364.56
469.942	536.56
470.048	370.56
470.153	387.56
470.259	423.56
470.365	451.56
470.47	433.56
470.576	433.56
470.682	354.56
470.787	355.56
470.893	321.56
470.999	375.56
471.104	395.56
471.21	337.56
471.315	246.56
471.421	262.56
471.527	528.56
471.632	435.56
471.738	395.56
471.843	296.56
471.949	422.56
472.054	342.56
472.16	294.56
472.265	357.56
472.371	285.56
472.476	346.56
472.582	403.56
472.687	346.56
472.793	273.56
472.898	311.56
473.003	346.56
473.109	279.56
473.214	257.56
473.32	345.56
473.425	356.56
473.53	294.56
473.636	306.56
473.741	270.56
473.847	273.56
473.952	308.56
474.057	345.56
474.163	361.56
474.268	274.56
474.373	409.56
474.478	234.56
474.584	237.56
474.689	348.56
474.794	334.56
474.9	532.56
475.005	316.56
475.11	458.56
475.215	271.56
475.321	311.56
475.426	522.56
475.531	422.56
475.636	297.56
475.741	288.56
475.846	406.56
475.952	522.56
476.057	450.56
476.162	414.56
476.267	468.56
476.372	632.56
476.477	361.56
476.582	416.56
476.687	286.56
476.793	388.56
476.898	295.56
477.003	363.56
477.108	314.56
477.213	244.56
477.318	299.56
477.423	411.56
477.528	438.56
477.633	407.56
477.738	357.56
477.843	287.56
477.948	297.56
478.053	330.56
478.158	377.56
478.263	360.56
478.368	324.56
478.473	451.56
478.578	398.56
478.682	278.56
478.787	446.56
478.892	352.56
478.997	457.56
479.102	374.56
479.207	349.56
479.312	443.56
479.417	396.56
479.521	392.56
479.626	449.56
479.731	370.56
479.836	387.56
479.941	490.56
480.045	457.56
480.15	475.56
480.255	376.56
480.36	296.56
480.465	436.56
480.569	550.56
480.674	376.56
480.779	302.56
480.883	376.56
480.988	412.56
481.093	390.56
481.197	474.56
481.302	364.56
481.407	418.56
481.511	2529.56
481.616	558.56
481.721	384.56
481.825	610.56
481.93	390.56
482.035	329.56
482.139	404.56
482.244	472.56
482.348	398.56
482.453	391.56
482.557	469.56
482.662	384.56
482.767	326.56
482.871	409.56
482.976	386.56
483.08	396.56
483.185	551.56
483.289	394.56
483.394	371.56
483.498	433.56
483.603	406.56
483.707	395.56
483.811	470.56
483.916	517.56
484.02	377.56
484.125	465.56
484.229	430.56
484.333	515.56
484.438	411.56
484.542	401.56
484.647	360.56
484.751	371.56
484.855	369.56
484.96	403.56
485.064	434.56
485.168	432.56
485.273	452.56
485.377	381.56
485.481	635.56
485.585	463.56
485.69	376.56
485.794	445.56
485.898	502.56
486.002	467.56
486.107	459.56
486.211	485.56
486.315	487.56
486.419	503.56
486.524	461.56
486.628	468.56
486.732	423.56
486.836	457.56
486.94	580.56
487.044	512.56
487.148	441.56
487.253	421.56
487.357	480.56
487.461	605.56
487.565	491.56
487.669	516.56
487.773	442.56
487.877	557.56
487.981	585.56
488.085	513.56
488.189	487.56
488.293	625.56
488.397	1003.56
488.501	568.56
488.605	461.56
488.709	540.56
488.813	470.56
488.917	445.56
489.021	559.56
489.125	800.56
489.229	500.56
489.333	662.56
489.437	525.56
489.541	509.56
489.645	485.56
489.749	505.56
489.853	548.56
489.956	528.56
490.06	595.56
490.164	522.56
490.268	481.56
490.372	578.56
490.476	450.56
490.579	464.56
490.683	1187.56
490.787	569.56
490.891	509.56
490.995	561.56
491.098	582.56
491.202	497.56
491.306	561.56
491.41	609.56
491.513	501.56
491.617	537.56
491.721	734.56
491.824	767.56
491.928	556.56
492.032	761.56
492.136	541.56
492.239	448.56
492.343	543.56
492.446	949.56
492.55	578.56
492.654	467.56
492.757	510.56
492.861	624.56
492.965	503.56
493.068	559.56
493.172	505.56
493.275	457.56
493.379	518.56
493.482	606.56
493.586	674.56
493.689	821.56
493.793	542.56
493.896	589.56
494	591.56
494.103	648.56
494.207	815.56
494.31	939.56
494.414	624.56
494.517	489.56
494.621	479.56
494.724	569.56
494.828	546.56
494.931	539.56
495.034	495.56
495.138	678.56
495.241	518.56
495.345	1346.56
495.448	754.56
495.551	513.56
495.655	516.56
495.758	547.56
495.861	455.56
495.965	510.56
496.068	585.56
496.171	563.56
496.274	457.56
496.378	492.56
496.481	548.56
496.584	551.56
496.687	563.56
496.791	624.56
496.894	597.56
496.997	516.56
497.1	628.56
497.204	542.56
497.307	454.56
497.41	756.56
497.513	790.56
497.616	539.56
497.719	529.56
497.823	605.56
497.926	514.56
498.029	593.56
498.132	659.56
498.235	592.56
498.338	605.56
498.441	788.56
498.544	593.56
498.647	666.56
498.75	782.56
498.853	824.56
498.956	705.56
499.059	916.56
499.163	769.56
499.266	811.56
499.369	792.56
499.471	844.56
499.574	904.56
499.677	868.56
499.78	905.56
499.883	913.56
499.986	993.56
500.089	994.56
500.192	1000.56
500.295	1047.56
500.398	1024.56
500.501	1012.56
500.604	922.56
500.707	861.56
500.809	942.56
500.912	922.56
501.015	951.56
501.118	816.56
501.221	888.56
501.324	760.56
501.426	784.56
501.529	709.56
501.632	675.56
501.735	642.56
501.837	615.56
501.94	601.56
502.043	569.56
502.146	675.56
502.248	609.56
502.351	528.56
502.454	593.56
502.557	465.56
502.659	589.56
502.762	535.56
502.865	465.56
502.967	445.56
503.07	533.56
503.173	603.56
503.275	483.56
503.378	519.56
503.48	531.56
503.583	581.56
503.686	533.56
503.788	778.56
503.891	525.56
503.993	723.56
504.096	525.56
504.198	466.56
504.301	417.56
504.403	493.56
504.506	528.56
504.608	475.56
504.711	420.56
504.813	573.56
504.916	452.56
505.018	409.56
505.121	443.56
505.223	494.56
505.326	435.56
505.428	545.56
505.531	485.56
505.633	443.56
505.735	368.56
505.838	442.56
505.94	429.56
506.042	351.56
506.145	402.56
506.247	464.56
506.35	346.56
506.452	536.56
506.554	420.56
506.656	455.56
506.759	397.56
506.861	445.56
506.963	392.56
507.066	460.56
507.168	543.56
507.27	391.56
507.372	344.56
507.475	398.56
507.577	405.56
507.679	357.56
507.781	364.56
507.883	402.56
507.986	311.56
508.088	408.56
508.19	420.56
508.292	413.56
508.394	351.56
508.496	342.56
508.598	340.56
508.701	354.56
508.803	413.56
508.905	336.56
509.007	382.56
509.109	503.56
509.211	404.56
509.313	368.56
509.415	337.56
509.517	384.56
509.619	279.56
509.721	377.56
509.823	381.56
509.925	533.56
510.027	358.56
510.129	461.56
510.231	360.56
510.333	327.56
510.435	354.56
510.537	338.56
510.639	450.56
510.741	358.56
510.843	489.56
510.945	323.56
511.047	423.56
511.148	474.56
511.25	316.56
511.352	375.56
511.454	295.56
511.556	408.56
511.658	377.56
511.76	467.56
511.861	495.56
511.963	314.56
512.065	366.56
512.167	370.56
512.268	506.56
512.37	381.56
512.472	392.56
512.574	435.56
512.676	478.56
512.777	361.56
512.879	310.56
512.981	296.56
513.082	424.56
513.184	382.56
513.286	770.56
513.387	451.56
513.489	551.56
513.591	401.56
513.692	488.56
513.794	471.56
513.896	273.56
513.997	316.56
514.099	340.56
514.2	377.56
514.302	403.56
514.404	410.56
514.505	335.56
514.607	404.56
514.708	396.56
514.81	482.56
514.911	405.56
515.013	452.56
515.114	466.56
515.216	418.56
515.317	382.56
515.419	392.56
515.52	406.56
515.622	389.56
515.723	517.56
515.825	559.56
515.926	400.56
516.027	397.56
516.129	404.56
516.23	416.56
516.332	460.56
516.433	461.56
516.534	508.56
516.636	415.56
516.737	439.56
516.838	1441.56
516.94	595.56
517.041	471.56
517.142	608.56
517.244	566.56
517.345	495.56
517.446	564.56
517.547	567.56
517.649	451.56
517.75	560.56
517.851	515.56
517.952	765.56
518.054	587.56
518.155	644.56
518.256	456.56
518.357	701.56
518.458	455.56
518.56	426.56
518.661	477.56
518.762	531.56
518.863	564.56
518.964	523.56
519.065	441.56
519.166	422.56
519.268	409.56
519.369	741.56
519.47	479.56
519.571	481.56
519.672	418.56
519.773	453.56
519.874	464.56
519.975	497.56
520.076	506.56
520.177	522.56
520.278	445.56
520.379	520.56
520.48	363.56
520.581	401.56
520.682	467.56
520.783	411.56
520.884	514.56
520.985	526.56
521.086	458.56
521.187	514.56
521.288	450.56
521.389	527.56
521.489	454.56
521.59	393.56
521.691	504.56
521.792	417.56
521.893	562.56
521.994	642.56
522.095	514.56
522.195	537.56
522.296	640.56
522.397	592.56
522.498	545.56
522.599	413.56
522.699	523.56
522.8	471.56
522.901	590.56
523.002	480.56
523.102	666.56
523.203	497.56
523.304	683.56
523.405	475.56
523.505	463.56
523.606	521.56
523.707	551.56
523.807	503.56
523.908	451.56
524.009	614.56
524.109	504.56
524.21	469.56
524.31	578.56
524.411	609.56
524.512	615.56
524.612	573.56
524.713	695.56
524.813	493.56
524.914	769.56
525.014	6671.56
525.115	1078.56
525.216	454.56
525.316	556.56
525.417	550.56
525.517	463.56
525.618	564.56
525.718	414.56
525.819	423.56
525.919	525.56
526.019	454.56
526.12	530.56
526.22	420.56
526.321	495.56
526.421	397.56
526.522	424.56
526.622	484.56
526.722	458.56
526.823	519.56
526.923	529.56
527.023	587.56
527.124	438.56
527.224	563.56
527.324	431.56
527.425	451.56
527.525	407.56
527.625	464.56
527.726	469.56
527.826	561.56
527.926	503.56
528.026	480.56
528.127	437.56
528.227	525.56
528.327	568.56
528.427	516.56
528.528	568.56
528.628	550.56
528.728	509.56
528.828	618.56
528.928	589.56
529.029	520.56
529.129	536.56
529.229	567.56
529.329	534.56
529.429	607.56
529.529	583.56
529.629	546.56
529.729	535.56
529.829	713.56
529.93	466.56
530.03	502.56
530.13	542.56
530.23	565.56
530.33	589.56
530.43	498.56
530.53	567.56
530.63	486.56
530.73	390.56
530.83	435.56
530.93	426.56
531.03	396.56
531.13	574.56
531.23	428.56
531.33	489.56
531.429	568.56
531.529	707.56
531.629	461.56
531.729	373.56
531.829	419.56
531.929	414.56
532.029	501.56
532.129	473.56
532.229	520.56
532.328	458.56
532.428	475.56
532.528	430.56
532.628	390.56
532.728	458.56
532.827	437.56
532.927	487.56
533.027	473.56
533.127	613.56
533.227	483.56
533.326	528.56
533.426	482.56
533.526	586.56
533.625	616.56
533.725	777.56
533.825	597.56
533.924	389.56
534.024	338.56
534.124	433.56
534.223	486.56
534.323	845.56
534.423	571.56
534.522	481.56
534.622	426.56
534.722	463.56
534.821	523.56
534.921	406.56
535.02	370.56
535.12	484.56
535.219	521.56
535.319	498.56
535.419	551.56
535.518	455.56
535.618	496.56
535.717	566.56
535.817	390.56
535.916	328.56
536.016	520.56
536.115	392.56
536.215	397.56
536.314	344.56
536.413	333.56
536.513	372.56
536.612	362.56
536.712	363.56
536.811	377.56
536.91	333.56
537.01	378.56
537.109	403.56
537.209	378.56
537.308	410.56
537.407	385.56
537.507	366.56
537.606	363.56
537.705	473.56
537.805	391.56
537.904	339.56
538.003	502.56
538.102	534.56
538.202	408.56
538.301	534.56
538.4	462.56
538.499	413.56
538.599	489.56
538.698	652.56
538.797	403.56
538.896	497.56
538.995	521.56
539.095	372.56
539.194	644.56
539.293	441.56
539.392	425.56
539.491	410.56
539.59	448.56
539.689	549.56
539.789	517.56
539.888	390.56
539.987	322.56
540.086	378.56
540.185	429.56
540.284	491.56
540.383	416.56
540.482	353.56
540.581	473.56
540.68	422.56
540.779	473.56
540.878	476.56
540.977	486.56
541.076	477.56
541.175	472.56
541.274	695.56
541.373	539.56
541.472	499.56
541.571	456.56
541.67	1777.56
541.769	633.56
541.868	526.56
541.966	545.56
542.065	486.56
542.164	525.56
542.263	425.56
542.362	437.56
542.461	518.56
542.56	464.56
542.658	467.56
542.757	412.56
542.856	400.56
542.955	350.56
543.054	337.56
543.152	576.56
543.251	432.56
543.35	592.56
543.449	500.56
543.547	408.56
543.646	389.56
543.745	501.56
543.843	547.56
543.942	473.56
544.041	445.56
544.14	486.56
544.238	424.56
544.337	638.56
544.436	589.56
544.534	576.56
544.633	549.56
544.731	490.56
544.83	522.56
544.929	470.56
545.027	483.56
545.126	424.56
545.224	525.56
545.323	446.56
545.421	518.56
545.52	480.56
545.619	514.56
545.717	528.56
545.816	538.56
545.914	559.56
546.013	780.56
546.111	670.56
546.209	462.56
546.308	453.56
546.406	476.56
546.505	671.56
546.603	486.56
546.702	483.56
546.8	459.56
546.899	478.56
546.997	544.56
547.095	507.56
547.194	504.56
547.292	518.56
547.39	553.56
547.489	496.56
547.587	788.56
547.685	494.56
547.784	705.56
547.882	515.56
547.98	484.56
548.079	487.56
548.177	432.56
548.275	462.56
548.373	568.56
548.472	420.56
548.57	465.56
548.668	551.56
548.766	420.56
548.864	585.56
548.963	433.56
549.061	580.56
549.159	435.56
549.257	551.56
549.355	448.56
549.454	415.56
549.552	551.56
549.65	467.56
549.748	418.56
549.846	460.56
549.944	453.56
550.042	386.56
550.14	461.56
550.238	485.56
550.336	408.56
550.434	384.56
550.532	453.56
550.631	556.56
550.729	473.56
550.827	578.56
550.925	439.56
551.023	434.56
551.121	416.56
551.218	433.56
551.316	342.56
551.414	368.56
551.512	358.56
551.61	445.56
551.708	498.56
551.806	522.56
551.904	397.56
552.002	346.56
552.1	450.56
552.198	388.56
552.296	563.56
552.393	650.56
552.491	603.56
552.589	547.56
552.687	634.56
552.785	570.56
552.882	590.56
552.98	691.56
553.078	634.56
553.176	570.56
553.274	431.56
553.371	516.56
553.469	509.56
553.567	468.56
553.665	506.56
553.762	929.56
553.86	617.56
553.958	514.56
554.055	557.56
554.153	581.56
554.251	467.56
554.348	581.56
554.446	435.56
554.544	464.56
554.641	870.56
554.739	462.56
554.837	472.56
554.934	495.56
555.032	474.56
555.129	401.56
555.227	695.56
555.324	4201.56
555.422	841.56
555.519	448.56
555.617	508.56
555.715	332.56
555.812	2215.56
555.91	638.56
556.007	480.56
556.105	410.56
556.202	478.56
556.299	389.56
556.397	415.56
556.494	425.56
556.592	471.56
556.689	479.56
556.787	412.56
556.884	407.56
556.981	366.56
557.079	398.56
557.176	469.56
557.273	474.56
557.371	504.56
557.468	453.56
557.566	514.56
557.663	400.56
557.76	437.56
557.857	456.56
557.955	444.56
558.052	511.56
558.149	592.56
558.247	598.56
558.344	445.56
558.441	399.56
558.538	408.56
558.636	407.56
558.733	485.56
558.83	481.56
558.927	390.56
559.024	433.56
559.122	440.56
559.219	364.56
559.316	511.56
559.413	602.56
559.51	398.56
559.607	394.56
559.704	494.56
559.801	541.56
559.899	409.56
559.996	642.56
560.093	515.56
560.19	365.56
560.287	482.56
560.384	651.56
560.481	385.56
560.578	385.56
560.675	449.56
560.772	500.56
560.869	438.56
560.966	626.56
561.063	437.56
561.16	488.56
561.257	471.56
561.354	478.56
561.451	375.56
561.548	438.56
561.645	674.56
561.742	361.56
561.838	430.56
561.935	470.56
562.032	415.56
562.129	426.56
562.226	444.56
562.323	396.56
562.42	500.56
562.516	411.56
562.613	464.56
562.71	445.56
562.807	1156.56
562.904	492.56
563	423.56
563.097	406.56
563.194	462.56
563.291	424.56
563.387	404.56
563.484	464.56
563.581	453.56
563.678	365.56
563.774	843.56
563.871	530.56
563.968	456.56
564.064	452.56
564.161	479.56
564.258	403.56
564.354	494.56
564.451	532.56
564.548	455.56
564.644	430.56
564.741	433.56
564.837	386.56
564.934	404.56
565.031	424.56
565.127	475.56
565.224	499.56
565.32	633.56
565.417	456.56
565.513	503.56
565.61	513.56
565.706	613.56
565.803	527.56
565.899	487.56
565.996	519.56
566.092	501.56
566.189	472.56
566.285	523.56
566.382	520.56
566.478	547.56
566.574	606.56
566.671	551.56
566.767	511.56
566.864	466.56
566.96	581.56
567.056	542.56
567.153	759.56
567.249	666.56
567.345	618.56
567.442	600.56
567.538	608.56
567.634	639.56
567.731	501.56
567.827	579.56
567.923	637.56
568.019	454.56
568.116	424.56
568.212	424.56
568.308	520.56
568.404	465.56
568.501	475.56
568.597	525.56
568.693	449.56
568.789	1160.56
568.885	492.56
568.982	434.56
569.078	357.56
569.174	504.56
569.27	324.56
569.366	478.56
569.462	438.56
569.558	372.56
569.655	409.56
569.751	357.56
569.847	388.56
569.943	345.56
570.039	303.56
570.135	891.56
570.231	325.56
570.327	482.56
570.423	502.56
570.519	412.56
570.615	364.56
570.711	438.56
570.807	450.56
570.903	369.56
570.999	450.56
571.095	429.56
571.191	388.56
571.287	462.56
571.383	515.56
571.479	371.56
571.574	488.56
571.67	444.56
571.766	622.56
571.862	368.56
571.958	409.56
572.054	457.56
572.15	270.56
572.246	321.56
572.341	475.56
572.437	397.56
572.533	417.56
572.629	376.56
572.725	339.56
572.82	304.56
572.916	497.56
573.012	324.56
573.108	419.56
573.203	358.56
573.299	299.56
573.395	229.56
573.49	256.56
573.586	335.56
573.682	338.56
573.778	471.56
573.873	302.56
573.969	275.56
574.065	333.56
574.16	351.56
574.256	302.56
574.351	386.56
574.447	337.56
574.543	342.56
574.638	418.56
574.734	339.56
574.829	613.56
574.925	329.56
575.02	296.56
575.116	362.56
575.212	313.56
575.307	454.56
575.403	367.56
575.498	363.56
575.594	326.56
575.689	405.56
575.784	374.56
575.88	347.56
575.975	381.56
576.071	313.56
576.166	271.56
576.262	307.56
576.357	312.56
576.452	470.56
576.548	366.56
576.643	314.56
576.739	359.56
576.834	363.56
576.929	334.56
577.025	1006.56
577.12	298.56
577.215	235.56
577.311	398.56
577.406	413.56
577.501	498.56
577.597	273.56
577.692	450.56
577.787	398.56
577.882	322.56
577.978	325.56
578.073	263.56
578.168	274.56
578.263	295.56
578.358	250.56
578.454	307.56
578.549	295.56
578.644	228.56
578.739	338.56
578.834	286.56
578.929	236.56
579.025	264.56
579.12	362.56
579.215	535.56
579.31	490.56
579.405	274.56
579.5	335.56
579.595	255.56
579.69	226.56
579.785	296.56
579.88	250.56
579.975	283.56
580.07	302.56
580.165	266.56
580.26	372.56
580.355	335.56
580.45	258.56
580.545	264.56
580.64	307.56
580.735	391.56
580.83	345.56
580.925	248.56
581.02	270.56
581.115	242.56
581.21	208.56
581.305	375.56
581.4	321.56
581.495	268.56
581.589	322.56
581.684	218.56
581.779	337.56
581.874	328.56
581.969	404.56
582.064	240.56
582.158	231.56
582.253	253.56
582.348	273.56
582.443	299.56
582.537	319.56
582.632	465.56
582.727	268.56
582.822	318.56
582.916	251.56
583.011	223.56
583.106	321.56
583.201	266.56
583.295	273.56
583.39	216.56
583.485	213.56
583.579	1904.56
583.674	465.56
583.769	586.56
583.863	246.56
583.958	273.56
584.052	178.56
584.147	217.56
584.242	153.56
584.336	255.56
584.431	402.56
584.525	208.56
584.62	404.56
584.714	376.56
584.809	262.56
584.903	265.56
584.998	320.56
585.092	158.56
585.187	240.56
585.281	254.56
585.376	253.56
585.47	295.56
585.565	232.56
585.659	137.56
585.754	190.56
585.848	264.56
585.942	259.56
586.037	213.56
586.131	1565.56
586.226	376.56
586.32	285.56
586.414	134.56
586.509	377.56
586.603	313.56
586.697	205.56
586.792	192.56
586.886	181.56
586.98	321.56
587.075	223.56
587.169	215.56
587.263	391.56
587.357	261.56
587.452	247.56
587.546	364.56
587.64	191.56
587.734	287.56
587.829	306.56
587.923	192.56
588.017	226.56
588.111	218.56
588.205	280.56
588.3	166.56
588.394	205.56
588.488	168.56
588.582	291.56
588.676	368.56
588.77	468.56
588.864	958.56
588.958	829.56
589.052	543.56
589.147	459.56
589.241	356.56
589.335	344.56
589.429	666.56
589.523	698.56
589.617	602.56
589.711	418.56
589.805	343.56
589.899	427.56
589.993	236.56
590.087	140.56
590.181	194.56
590.275	268.56
590.369	185.56
590.462	152.56
590.556	185.56
590.65	126.56
590.744	178.56
590.838	190.56
590.932	157.56
591.026	254.56
591.12	431.56
591.214	208.56
591.307	204.56
591.401	180.56
591.495	295.56
591.589	181.56
591.683	229.56
591.777	312.56
591.87	556.56
591.964	242.56
592.058	235.56
592.152	252.56
592.245	207.56
592.339	334.56
592.433	345.56
592.527	267.56
592.62	202.56
592.714	254.56
592.808	291.56
592.901	256.56
592.995	207.56
593.089	450.56
593.182	309.56
593.276	237.56
593.37	131.56
593.463	183.56
593.557	288.56
593.65	168.56
593.744	184.56
593.837	321.56
593.931	204.56
594.025	3389.56
594.118	574.56
594.212	250.56
594.305	162.56
594.399	235.56
594.492	672.56
594.586	219.56
594.679	205.56
594.773	210.56
594.866	258.56
594.96	168.56
595.053	198.56
595.146	200.56
595.24	132.56
595.333	127.56
595.427	145.56
595.52	137.56
595.614	337.56
595.707	255.56
595.8	161.56
595.894	215.56
595.987	169.56
596.08	117.56
596.174	577.56
596.267	350.56
596.36	324.56
596.454	337.56
596.547	325.56
596.64	223.56
596.733	134.56
596.827	278.56
596.92	222.56
597.013	99.56
597.106	106.56
597.2	152.56
597.293	107.56
597.386	392.56
597.479	231.56
597.572	210.56
597.666	120.56
597.759	163.56
597.852	334.56
597.945	131.56
598.038	190.56
598.131	210.56
598.224	187.56
598.317	218.56
598.411	219.56
598.504	92.56
598.597	214.56
598.69	174.56
598.783	134.56
598.876	177.56
598.969	187.56
599.062	131.56
599.155	213.56
599.248	155.56
599.341	246.56
599.434	108.56
599.527	219.56
599.62	195.56
599.713	135.56
599.806	206.56
599.899	387.56
599.991	168.56
600.084	388.56
600.177	160.56
600.27	168.56
600.363	323.56
600.456	150.56
600.549	277.56
600.642	111.56
600.734	125.56
600.827	197.56
600.92	242.56
601.013	153.56
601.106	256.56
601.199	147.56
601.291	155.56
601.384	186.56
601.477	419.56
601.57	256.56
601.662	116.56
601.755	230.56
601.848	197.56
601.94	123.56
602.033	315.56
602.126	187.56
602.219	132.56
602.311	307.56
602.404	183.56
602.497	132.56
602.589	116.56
602.682	263.56
602.774	192.56
602.867	176.56
602.96	247.56
603.052	196.56
603.145	180.56
603.237	179.56
603.33	190.56
603.422	301.56
603.515	140.56
603.608	243.56
603.7	209.56
603.793	172.56
603.885	238.56
603.978	115.56
604.07	145.56
604.163	190.56
604.255	206.56
604.347	113.56
604.44	127.56
604.532	247.56
604.625	166.56
604.717	137.56
604.81	251.56
604.902	141.56
604.994	125.56
605.087	143.56
605.179	131.56
605.271	180.56
605.364	209.56
605.456	234.56
605.548	170.56
605.641	205.56
605.733	172.56
605.825	191.56
605.918	112.56
606.01	374.56
606.102	656.56
606.194	221.56
606.287	374.56
606.379	137.56
606.471	197.56
606.563	233.56
606.655	181.56
606.748	234.56
606.84	186.56
606.932	244.56
607.024	132.56
607.116	123.56
607.208	180.56
607.301	181.56
607.393	120.56
607.485	199.56
607.577	217.56
607.669	264.56
607.761	271.56
607.853	466.56
607.945	152.56
608.037	134.56
608.129	155.56
608.221	143.56
608.313	141.56
608.405	307.56
608.497	187.56
608.589	122.56
608.681	279.56
608.773	189.56
608.865	206.56
608.957	262.56
609.049	161.56
609.141	250.56
609.233	145.56
609.325	143.56
609.417	106.56
609.509	215.56
609.601	345.56
609.693	231.56
609.784	160.56
609.876	211.56
609.968	210.56
610.06	2533.56
610.152	509.56
610.244	1051.56
610.335	242.56
610.427	162.56
610.519	184.56
610.611	193.56
610.702	145.56
610.794	202.56
610.886	250.56
610.978	207.56
611.069	752.56
611.161	180.56
611.253	282.56
611.344	180.56
611.436	120.56
611.528	262.56
611.62	150.56
611.711	186.56
611.803	137.56
611.894	110.56
611.986	192.56
612.078	175.56
612.169	157.56
612.261	179.56
612.352	97.56
612.444	81.56
612.536	305.56
612.627	145.56
612.719	65.56
612.81	90.56
612.902	87.56
612.993	120.56
613.085	136.56
613.176	123.56
613.268	138.56
613.359	106.56
613.451	175.56
613.542	164.56
613.634	105.56
613.725	198.56
613.816	237.56
613.908	98.56
613.999	128.56
614.091	57.56
614.182	22.56
614.273	141.56
614.365	80.56
614.456	-24.44
614.547	51.56
614.639	61.56
614.73	33.56
614.821	138.56
614.913	25.56
615.004	9.56
615.095	-9.44
615.187	-6.44
