Data from 21g_HRC06701__120__364.txt Node

Date: Thu Apr 18 02:09:39 CDT 2024
User: Estudiantes 2
Spectrometer: HR+C0670
Trigger mode: 4
Integration Time (sec): 1.000000E0
Scans to average: 1
Electric dark correction enabled: true
Nonlinearity correction enabled: false
Boxcar width: 0
XAxis mode: Wavelengths
Number of Pixels in Spectrum: 2048
>>>>>Begin Spectral Data<<<<<
407.81	-138.5
407.921	-138.5
408.032	-138.5
408.143	-120.5
408.254	-99.5
408.365	26.5
408.476	229.5
408.587	6.5
408.699	-0.5
408.81	-44.5
408.921	-33.5
409.032	-4.5
409.143	19.5
409.254	16.5
409.365	143.5
409.476	-60.5
409.587	-26.5
409.698	86.5
409.809	55.5
409.92	-19.5
410.031	-4.5
410.142	72.5
410.253	7.5
410.364	68.5
410.475	1120.5
410.585	5314.5
410.696	5831.5
410.807	5698.5
410.918	5633.5
411.029	5793.5
411.14	5805.5
411.251	5701.5
411.362	5674.5
411.472	5910.5
411.583	5794.5
411.694	6052.5
411.805	5975.5
411.916	6084.5
412.026	6151.5
412.137	5896.5
412.248	5957.5
412.359	5971.5
412.47	5633.5
412.58	5677.5
412.691	5820.5
412.802	5619.5
412.912	5748.5
413.023	5783.5
413.134	5680.5
413.245	5757.5
413.355	5763.5
413.466	5724.5
413.577	5763.5
413.687	5935.5
413.798	5641.5
413.909	5845.5
414.019	5935.5
414.13	5957.5
414.24	5771.5
414.351	6006.5
414.462	6210.5
414.572	5941.5
414.683	5883.5
414.793	5930.5
414.904	6242.5
415.014	5887.5
415.125	5853.5
415.235	5868.5
415.346	6069.5
415.456	6091.5
415.567	5881.5
415.677	5841.5
415.788	5895.5
415.898	5733.5
416.009	5694.5
416.119	5819.5
416.23	5838.5
416.34	5794.5
416.45	5854.5
416.561	6596.5
416.671	5924.5
416.782	5832.5
416.892	6013.5
417.002	5953.5
417.113	6153.5
417.223	5984.5
417.333	6064.5
417.444	6054.5
417.554	6182.5
417.664	6269.5
417.775	6090.5
417.885	6297.5
417.995	6306.5
418.106	6695.5
418.216	6416.5
418.326	6609.5
418.436	6702.5
418.547	6695.5
418.657	6783.5
418.767	6962.5
418.877	6795.5
418.987	6963.5
419.098	6887.5
419.208	6835.5
419.318	6907.5
419.428	6945.5
419.538	6702.5
419.648	6984.5
419.759	6904.5
419.869	6849.5
419.979	6817.5
420.089	6861.5
420.199	6801.5
420.309	6826.5
420.419	6996.5
420.529	7021.5
420.639	7310.5
420.749	7081.5
420.859	7169.5
420.969	7029.5
421.079	7277.5
421.189	7057.5
421.299	6908.5
421.409	7011.5
421.519	7323.5
421.629	7370.5
421.739	7320.5
421.849	7272.5
421.959	7391.5
422.069	7247.5
422.179	7428.5
422.289	7486.5
422.399	7685.5
422.509	7707.5
422.619	11290.5
422.729	8010.5
422.838	7839.5
422.948	8066.5
423.058	8023.5
423.168	7992.5
423.278	8152.5
423.388	8370.5
423.498	8508.5
423.607	8420.5
423.717	8831.5
423.827	8796.5
423.937	8652.5
424.046	8723.5
424.156	8802.5
424.266	8651.5
424.376	8916.5
424.485	8810.5
424.595	8766.5
424.705	8826.5
424.815	8732.5
424.924	9229.5
425.034	8799.5
425.144	8900.5
425.253	8762.5
425.363	8992.5
425.473	9052.5
425.582	8688.5
425.692	9022.5
425.801	8796.5
425.911	9230.5
426.021	9087.5
426.13	9225.5
426.24	9304.5
426.349	9168.5
426.459	9057.5
426.568	9196.5
426.678	9309.5
426.787	9244.5
426.897	9244.5
427.006	9479.5
427.116	9312.5
427.225	9447.5
427.335	9647.5
427.444	9476.5
427.554	9493.5
427.663	9718.5
427.773	9611.5
427.882	9639.5
427.992	9751.5
428.101	9824.5
428.21	9763.5
428.32	10077.5
428.429	9836.5
428.539	10213.5
428.648	10026.5
428.757	10036.5
428.867	10123.5
428.976	10475.5
429.085	10194.5
429.195	10173.5
429.304	10197.5
429.413	10334.5
429.523	10343.5
429.632	10428.5
429.741	10437.5
429.85	10267.5
429.96	10612.5
430.069	10536.5
430.178	10637.5
430.287	10927.5
430.397	10859.5
430.506	10766.5
430.615	10737.5
430.724	10951.5
430.833	10877.5
430.943	10858.5
431.052	11074.5
431.161	11184.5
431.27	11295.5
431.379	11387.5
431.488	12043.5
431.597	11749.5
431.706	12063.5
431.816	12066.5
431.925	11922.5
432.034	11786.5
432.143	11741.5
432.252	11627.5
432.361	11785.5
432.47	11646.5
432.579	11826.5
432.688	11587.5
432.797	11795.5
432.906	11509.5
433.015	11961.5
433.124	12012.5
433.233	11900.5
433.342	11785.5
433.451	11932.5
433.56	11949.5
433.669	12038.5
433.778	11953.5
433.886	12227.5
433.995	12243.5
434.104	12544.5
434.213	12628.5
434.322	12829.5
434.431	13291.5
434.54	13491.5
434.649	13874.5
434.757	13841.5
434.866	13582.5
434.975	13380.5
435.084	13139.5
435.193	12640.5
435.301	12816.5
435.41	12592.5
435.519	12561.5
435.628	11739.5
435.737	11632.5
435.845	11536.5
435.954	11386.5
436.063	11537.5
436.171	11459.5
436.28	11253.5
436.389	11640.5
436.498	11412.5
436.606	11476.5
436.715	11554.5
436.823	11267.5
436.932	11004.5
437.041	10895.5
437.149	10852.5
437.258	10768.5
437.367	10478.5
437.475	10714.5
437.584	10932.5
437.692	10419.5
437.801	12196.5
437.91	10440.5
438.018	10335.5
438.127	10240.5
438.235	10380.5
438.344	10447.5
438.452	10262.5
438.561	10321.5
438.669	10391.5
438.778	10244.5
438.886	10230.5
438.995	10220.5
439.103	10326.5
439.212	10373.5
439.32	10496.5
439.428	10358.5
439.537	10372.5
439.645	10736.5
439.754	10624.5
439.862	10387.5
439.97	10629.5
440.079	10722.5
440.187	10460.5
440.295	10926.5
440.404	10852.5
440.512	10783.5
440.62	10874.5
440.729	11171.5
440.837	11145.5
440.945	12067.5
441.054	11798.5
441.162	11715.5
441.27	12043.5
441.378	12352.5
441.487	12286.5
441.595	12644.5
441.703	12500.5
441.811	11872.5
441.92	12052.5
442.028	11588.5
442.136	11810.5
442.244	11567.5
442.352	11763.5
442.461	11486.5
442.569	11499.5
442.677	11598.5
442.785	11656.5
442.893	11339.5
443.001	11450.5
443.109	11454.5
443.217	11761.5
443.325	11506.5
443.434	12450.5
443.542	12256.5
443.65	12124.5
443.758	12350.5
443.866	12340.5
443.974	12790.5
444.082	12738.5
444.19	13263.5
444.298	13518.5
444.406	13902.5
444.514	14336.5
444.622	14486.5
444.73	14223.5
444.838	13836.5
444.946	13834.5
445.054	13183.5
445.161	12915.5
445.269	12380.5
445.377	12294.5
445.485	12118.5
445.593	12007.5
445.701	11940.5
445.809	11906.5
445.917	11826.5
446.025	11740.5
446.132	11707.5
446.24	11785.5
446.348	11675.5
446.456	11504.5
446.564	11389.5
446.671	11666.5
446.779	11385.5
446.887	11236.5
446.995	11229.5
447.102	11309.5
447.21	11307.5
447.318	11214.5
447.426	11074.5
447.533	11541.5
447.641	12417.5
447.749	11162.5
447.856	11026.5
447.964	11141.5
448.072	11234.5
448.179	11034.5
448.287	11199.5
448.395	11215.5
448.502	11031.5
448.61	11106.5
448.718	11137.5
448.825	11255.5
448.933	11247.5
449.04	11164.5
449.148	11390.5
449.256	11274.5
449.363	11322.5
449.471	11540.5
449.578	11530.5
449.686	11539.5
449.793	11867.5
449.901	11723.5
450.008	11797.5
450.116	11952.5
450.223	11898.5
450.331	12219.5
450.438	12295.5
450.546	12382.5
450.653	12549.5
450.76	12728.5
450.868	12736.5
450.975	12985.5
451.083	12674.5
451.19	12973.5
451.297	12726.5
451.405	12753.5
451.512	12908.5
451.619	13224.5
451.727	13009.5
451.834	12942.5
451.941	13153.5
452.049	13176.5
452.156	13237.5
452.263	13372.5
452.371	13539.5
452.478	13474.5
452.585	13489.5
452.692	13291.5
452.8	13399.5
452.907	13755.5
453.014	13638.5
453.121	13634.5
453.229	13670.5
453.336	13938.5
453.443	13748.5
453.55	13686.5
453.657	13731.5
453.765	14141.5
453.872	14097.5
453.979	14191.5
454.086	14203.5
454.193	14212.5
454.3	14116.5
454.407	14281.5
454.514	14397.5
454.621	14187.5
454.729	14380.5
454.836	14355.5
454.943	14539.5
455.05	14450.5
455.157	14568.5
455.264	14471.5
455.371	14568.5
455.478	14568.5
455.585	14568.5
455.692	14568.5
455.799	14568.5
455.906	14568.5
456.013	14568.5
456.12	14568.5
456.227	14568.5
456.334	14568.5
456.44	14568.5
456.547	14568.5
456.654	14568.5
456.761	14568.5
456.868	14568.5
456.975	14568.5
457.082	14568.5
457.189	14568.5
457.296	14568.5
457.402	14568.5
457.509	14568.5
457.616	14568.5
457.723	14568.5
457.83	14568.5
457.936	14568.5
458.043	14568.5
458.15	14568.5
458.257	14568.5
458.363	14568.5
458.47	14568.5
458.577	14568.5
458.684	14568.5
458.79	14568.5
458.897	14568.5
459.004	14568.5
459.11	14568.5
459.217	14568.5
459.324	14568.5
459.43	14568.5
459.537	14568.5
459.644	14568.5
459.75	14568.5
459.857	14568.5
459.964	14568.5
460.07	14568.5
460.177	14568.5
460.283	14568.5
460.39	14568.5
460.496	14568.5
460.603	14568.5
460.71	14568.5
460.816	14568.5
460.923	14568.5
461.029	14568.5
461.136	14568.5
461.242	14568.5
461.349	14568.5
461.455	14568.5
461.562	14568.5
461.668	14568.5
461.774	14568.5
461.881	14568.5
461.987	14568.5
462.094	14568.5
462.2	14568.5
462.307	14568.5
462.413	14568.5
462.519	14568.5
462.626	14568.5
462.732	14568.5
462.838	14568.5
462.945	14568.5
463.051	14568.5
463.157	14568.5
463.264	14568.5
463.37	14568.5
463.476	14568.5
463.583	14568.5
463.689	14568.5
463.795	14568.5
463.901	14568.5
464.008	14568.5
464.114	14568.5
464.22	14568.5
464.326	14568.5
464.433	14568.5
464.539	14568.5
464.645	14568.5
464.751	14568.5
464.857	14568.5
464.963	14568.5
465.07	14568.5
465.176	14568.5
465.282	14568.5
465.388	14568.5
465.494	14568.5
465.6	14568.5
465.706	14568.5
465.812	14568.5
465.918	14568.5
466.024	14568.5
466.131	14568.5
466.237	14568.5
466.343	14568.5
466.449	14568.5
466.555	14568.5
466.661	14568.5
466.767	14568.5
466.873	14568.5
466.979	14568.5
467.085	14568.5
467.191	14568.5
467.296	14568.5
467.402	14568.5
467.508	14568.5
467.614	14568.5
467.72	14568.5
467.826	14568.5
467.932	14568.5
468.038	14568.5
468.144	14568.5
468.25	14533.5
468.355	14550.5
468.461	14345.5
468.567	14440.5
468.673	14386.5
468.779	14272.5
468.885	14456.5
468.99	14369.5
469.096	14487.5
469.202	14561.5
469.308	14568.5
469.413	14568.5
469.519	14568.5
469.625	14568.5
469.731	14568.5
469.836	14568.5
469.942	14568.5
470.048	14568.5
470.153	14568.5
470.259	14568.5
470.365	14568.5
470.47	14568.5
470.576	14568.5
470.682	14568.5
470.787	14568.5
470.893	14373.5
470.999	14341.5
471.104	13980.5
471.21	13889.5
471.315	13719.5
471.421	13628.5
471.527	13765.5
471.632	13430.5
471.738	13209.5
471.843	13074.5
471.949	13029.5
472.054	12864.5
472.16	12695.5
472.265	12811.5
472.371	12541.5
472.476	12504.5
472.582	12681.5
472.687	12393.5
472.793	12205.5
472.898	12238.5
473.003	12191.5
473.109	12075.5
473.214	11958.5
473.32	12043.5
473.425	11865.5
473.53	11877.5
473.636	11743.5
473.741	11839.5
473.847	11633.5
473.952	11858.5
474.057	11773.5
474.163	11758.5
474.268	11818.5
474.373	11964.5
474.478	11766.5
474.584	11807.5
474.689	11973.5
474.794	11851.5
474.9	12180.5
475.005	11728.5
475.11	12038.5
475.215	11819.5
475.321	11871.5
475.426	12150.5
475.531	12069.5
475.636	12021.5
475.741	11980.5
475.846	12211.5
475.952	12389.5
476.057	12155.5
476.162	12350.5
476.267	12144.5
476.372	12543.5
476.477	12296.5
476.582	12478.5
476.687	12295.5
476.793	12443.5
476.898	12513.5
477.003	12629.5
477.108	12762.5
477.213	12892.5
477.318	13058.5
477.423	13196.5
477.528	13308.5
477.633	13504.5
477.738	13715.5
477.843	13731.5
477.948	13873.5
478.053	14022.5
478.158	14055.5
478.263	14209.5
478.368	14310.5
478.473	14568.5
478.578	14568.5
478.682	14568.5
478.787	14568.5
478.892	14568.5
478.997	14568.5
479.102	14568.5
479.207	14568.5
479.312	14568.5
479.417	14568.5
479.521	14568.5
479.626	14568.5
479.731	14568.5
479.836	14568.5
479.941	14568.5
480.045	14568.5
480.15	14568.5
480.255	14568.5
480.36	14568.5
480.465	14568.5
480.569	14568.5
480.674	14568.5
480.779	14568.5
480.883	14568.5
480.988	14568.5
481.093	14568.5
481.197	14568.5
481.302	14568.5
481.407	14568.5
481.511	14568.5
481.616	14568.5
481.721	14568.5
481.825	14568.5
481.93	14568.5
482.035	14568.5
482.139	14568.5
482.244	14568.5
482.348	14568.5
482.453	14568.5
482.557	14568.5
482.662	14568.5
482.767	14568.5
482.871	14568.5
482.976	14568.5
483.08	14568.5
483.185	14568.5
483.289	14568.5
483.394	14568.5
483.498	14568.5
483.603	14568.5
483.707	14568.5
483.811	14568.5
483.916	14568.5
484.02	14568.5
484.125	14568.5
484.229	14568.5
484.333	14568.5
484.438	14568.5
484.542	14568.5
484.647	14568.5
484.751	14568.5
484.855	14568.5
484.96	14568.5
485.064	14568.5
485.168	14568.5
485.273	14568.5
485.377	14568.5
485.481	14568.5
485.585	14568.5
485.69	14568.5
485.794	14568.5
485.898	14568.5
486.002	14568.5
486.107	14568.5
486.211	14568.5
486.315	14568.5
486.419	14568.5
486.524	14568.5
486.628	14568.5
486.732	14568.5
486.836	14568.5
486.94	14568.5
487.044	14568.5
487.148	14568.5
487.253	14568.5
487.357	14568.5
487.461	14568.5
487.565	14568.5
487.669	14568.5
487.773	14568.5
487.877	14568.5
487.981	14568.5
488.085	14568.5
488.189	14568.5
488.293	14568.5
488.397	14568.5
488.501	14568.5
488.605	14568.5
488.709	14568.5
488.813	14568.5
488.917	14568.5
489.021	14568.5
489.125	14568.5
489.229	14568.5
489.333	14568.5
489.437	14568.5
489.541	14568.5
489.645	14568.5
489.749	14568.5
489.853	14568.5
489.956	14568.5
490.06	14568.5
490.164	14568.5
490.268	14568.5
490.372	14568.5
490.476	14568.5
490.579	14568.5
490.683	14568.5
490.787	14568.5
490.891	14568.5
490.995	14568.5
491.098	14568.5
491.202	14568.5
491.306	14568.5
491.41	14568.5
491.513	14568.5
491.617	14568.5
491.721	14568.5
491.824	14568.5
491.928	14568.5
492.032	14568.5
492.136	14568.5
492.239	14568.5
492.343	14568.5
492.446	14568.5
492.55	14568.5
492.654	14568.5
492.757	14568.5
492.861	14568.5
492.965	14568.5
493.068	14568.5
493.172	14568.5
493.275	14568.5
493.379	14568.5
493.482	14568.5
493.586	14568.5
493.689	14568.5
493.793	14568.5
493.896	14568.5
494	14568.5
494.103	14568.5
494.207	14568.5
494.31	14568.5
494.414	14568.5
494.517	14568.5
494.621	14568.5
494.724	14568.5
494.828	14568.5
494.931	14568.5
495.034	14568.5
495.138	14568.5
495.241	14568.5
495.345	14568.5
495.448	14568.5
495.551	14568.5
495.655	14568.5
495.758	14568.5
495.861	14568.5
495.965	14568.5
496.068	14568.5
496.171	14568.5
496.274	14568.5
496.378	14568.5
496.481	14568.5
496.584	14568.5
496.687	14568.5
496.791	14568.5
496.894	14568.5
496.997	14568.5
497.1	14568.5
497.204	14568.5
497.307	14568.5
497.41	14568.5
497.513	14568.5
497.616	14568.5
497.719	14568.5
497.823	14568.5
497.926	14568.5
498.029	14568.5
498.132	14568.5
498.235	14568.5
498.338	14568.5
498.441	14568.5
498.544	14568.5
498.647	14568.5
498.75	14568.5
498.853	14568.5
498.956	14568.5
499.059	14568.5
499.163	14568.5
499.266	14568.5
499.369	14568.5
499.471	14568.5
499.574	14568.5
499.677	14568.5
499.78	14568.5
499.883	14568.5
499.986	14568.5
500.089	14568.5
500.192	14568.5
500.295	14568.5
500.398	14568.5
500.501	14568.5
500.604	14568.5
500.707	14568.5
500.809	14568.5
500.912	14568.5
501.015	14568.5
501.118	14568.5
501.221	14568.5
501.324	14568.5
501.426	14568.5
501.529	14568.5
501.632	14568.5
501.735	14568.5
501.837	14568.5
501.94	14568.5
502.043	14568.5
502.146	14568.5
502.248	14568.5
502.351	14568.5
502.454	14568.5
502.557	14568.5
502.659	14568.5
502.762	14568.5
502.865	14568.5
502.967	14568.5
503.07	14568.5
503.173	14568.5
503.275	14568.5
503.378	14568.5
503.48	14568.5
503.583	14568.5
503.686	14568.5
503.788	14568.5
503.891	14568.5
503.993	14568.5
504.096	14568.5
504.198	14568.5
504.301	14568.5
504.403	14568.5
504.506	14568.5
504.608	14568.5
504.711	14568.5
504.813	14568.5
504.916	14568.5
505.018	14568.5
505.121	14568.5
505.223	14568.5
505.326	14568.5
505.428	14568.5
505.531	14568.5
505.633	14568.5
505.735	14568.5
505.838	14568.5
505.94	14511.5
506.042	14330.5
506.145	14375.5
506.247	14292.5
506.35	14119.5
506.452	14162.5
506.554	14127.5
506.656	14026.5
506.759	13790.5
506.861	13812.5
506.963	13546.5
507.066	13734.5
507.168	13758.5
507.27	13566.5
507.372	13366.5
507.475	13455.5
507.577	13357.5
507.679	13346.5
507.781	13280.5
507.883	13096.5
507.986	13018.5
508.088	13095.5
508.19	13003.5
508.292	12997.5
508.394	12842.5
508.496	12931.5
508.598	12797.5
508.701	12872.5
508.803	12902.5
508.905	12836.5
509.007	12843.5
509.109	12646.5
509.211	12606.5
509.313	12542.5
509.415	12562.5
509.517	12685.5
509.619	12515.5
509.721	12557.5
509.823	12485.5
509.925	12563.5
510.027	12431.5
510.129	12408.5
510.231	12429.5
510.333	12297.5
510.435	12449.5
510.537	12485.5
510.639	12517.5
510.741	12469.5
510.843	12417.5
510.945	12358.5
511.047	12373.5
511.148	12546.5
511.25	12480.5
511.352	12627.5
511.454	12406.5
511.556	12600.5
511.658	12407.5
511.76	12529.5
511.861	12716.5
511.963	12447.5
512.065	12542.5
512.167	12315.5
512.268	12698.5
512.37	12759.5
512.472	12595.5
512.574	12646.5
512.676	12676.5
512.777	12465.5
512.879	12611.5
512.981	12621.5
513.082	12595.5
513.184	12656.5
513.286	13074.5
513.387	12915.5
513.489	12981.5
513.591	12774.5
513.692	12897.5
513.794	13044.5
513.896	12621.5
513.997	12738.5
514.099	12878.5
514.2	12913.5
514.302	13122.5
514.404	13183.5
514.505	13149.5
514.607	13352.5
514.708	13284.5
514.81	13527.5
514.911	13661.5
515.013	13730.5
515.114	13814.5
515.216	13690.5
515.317	13964.5
515.419	13972.5
515.52	14295.5
515.622	14261.5
515.723	14397.5
515.825	14568.5
515.926	14568.5
516.027	14568.5
516.129	14568.5
516.23	14568.5
516.332	14568.5
516.433	14568.5
516.534	14568.5
516.636	14568.5
516.737	14568.5
516.838	14568.5
516.94	14568.5
517.041	14568.5
517.142	14568.5
517.244	14568.5
517.345	14568.5
517.446	14568.5
517.547	14568.5
517.649	14568.5
517.75	14568.5
517.851	14568.5
517.952	14568.5
518.054	14568.5
518.155	14568.5
518.256	14568.5
518.357	14568.5
518.458	14568.5
518.56	14568.5
518.661	14568.5
518.762	14568.5
518.863	14568.5
518.964	14568.5
519.065	14568.5
519.166	14568.5
519.268	14568.5
519.369	14568.5
519.47	14568.5
519.571	14568.5
519.672	14568.5
519.773	14568.5
519.874	14568.5
519.975	14568.5
520.076	14568.5
520.177	14568.5
520.278	14568.5
520.379	14568.5
520.48	14568.5
520.581	14568.5
520.682	14568.5
520.783	14568.5
520.884	14568.5
520.985	14568.5
521.086	14512.5
521.187	14568.5
521.288	14387.5
521.389	14335.5
521.489	14308.5
521.59	14345.5
521.691	14568.5
521.792	14265.5
521.893	14568.5
521.994	14505.5
522.095	14382.5
522.195	14371.5
522.296	14385.5
522.397	14387.5
522.498	14402.5
522.599	14227.5
522.699	14148.5
522.8	14243.5
522.901	14364.5
523.002	14307.5
523.102	14568.5
523.203	14174.5
523.304	14568.5
523.405	14378.5
523.505	14204.5
523.606	14547.5
523.707	14425.5
523.807	14175.5
523.908	14344.5
524.009	14509.5
524.109	14383.5
524.21	14313.5
524.31	14524.5
524.411	14484.5
524.512	14564.5
524.612	14372.5
524.713	14568.5
524.813	14568.5
524.914	14568.5
525.014	14568.5
525.115	14568.5
525.216	14461.5
525.316	14504.5
525.417	14568.5
525.517	14418.5
525.618	14476.5
525.718	14478.5
525.819	14375.5
525.919	14530.5
526.019	14508.5
526.12	14561.5
526.22	14548.5
526.321	14389.5
526.421	14396.5
526.522	14505.5
526.622	14412.5
526.722	14387.5
526.823	14543.5
526.923	14448.5
527.023	14568.5
527.124	14479.5
527.224	14513.5
527.324	14451.5
527.425	14446.5
527.525	14349.5
527.625	14451.5
527.726	14324.5
527.826	14568.5
527.926	14313.5
528.026	14568.5
528.127	14532.5
528.227	14501.5
528.327	14414.5
528.427	14521.5
528.528	14567.5
528.628	14446.5
528.728	14568.5
528.828	14426.5
528.928	14568.5
529.029	14383.5
529.129	14530.5
529.229	14484.5
529.329	14464.5
529.429	14568.5
529.529	14568.5
529.629	14392.5
529.729	14227.5
529.829	14451.5
529.93	14236.5
530.03	14403.5
530.13	14351.5
530.23	14419.5
530.33	14441.5
530.43	14289.5
530.53	14298.5
530.63	14298.5
530.73	14266.5
530.83	14222.5
530.93	14172.5
531.03	14179.5
531.13	14347.5
531.23	14096.5
531.33	14307.5
531.429	14262.5
531.529	14336.5
531.629	14266.5
531.729	14061.5
531.829	14091.5
531.929	14101.5
532.029	14166.5
532.129	14009.5
532.229	14227.5
532.328	14232.5
532.428	14020.5
532.528	13934.5
532.628	13713.5
532.728	13840.5
532.827	13690.5
532.927	13794.5
533.027	13692.5
533.127	13741.5
533.227	13659.5
533.326	13880.5
533.426	13601.5
533.526	13815.5
533.625	13764.5
533.725	13867.5
533.825	13508.5
533.924	13420.5
534.024	13246.5
534.124	13261.5
534.223	13278.5
534.323	13804.5
534.423	13365.5
534.522	13191.5
534.622	13053.5
534.722	13007.5
534.821	13049.5
534.921	12971.5
535.02	12786.5
535.12	12972.5
535.219	12946.5
535.319	12998.5
535.419	12807.5
535.518	12540.5
535.618	12711.5
535.717	12609.5
535.817	12491.5
535.916	12211.5
536.016	12335.5
536.115	12127.5
536.215	12261.5
536.314	12169.5
536.413	11979.5
536.513	11951.5
536.612	12004.5
536.712	11902.5
536.811	11831.5
536.91	11866.5
537.01	11660.5
537.109	11834.5
537.209	11798.5
537.308	11801.5
537.407	11747.5
537.507	11623.5
537.606	11598.5
537.705	11585.5
537.805	11550.5
537.904	11559.5
538.003	11523.5
538.102	11596.5
538.202	11344.5
538.301	11520.5
538.4	11538.5
538.499	11413.5
538.599	11371.5
538.698	11376.5
538.797	11127.5
538.896	11444.5
538.995	11214.5
539.095	11046.5
539.194	11376.5
539.293	11032.5
539.392	10998.5
539.491	11093.5
539.59	10991.5
539.689	11098.5
539.789	11029.5
539.888	10785.5
539.987	10776.5
540.086	10762.5
540.185	10789.5
540.284	10877.5
540.383	10758.5
540.482	10726.5
540.581	10658.5
540.68	10705.5
540.779	10715.5
540.878	10615.5
540.977	10559.5
541.076	10648.5
541.175	10565.5
541.274	10824.5
541.373	10634.5
541.472	10550.5
541.571	10308.5
541.67	11904.5
541.769	10604.5
541.868	10264.5
541.966	10396.5
542.065	10437.5
542.164	10307.5
542.263	10204.5
542.362	10276.5
542.461	10318.5
542.56	10255.5
542.658	10351.5
542.757	10159.5
542.856	10118.5
542.955	10214.5
543.054	10124.5
543.152	10251.5
543.251	10188.5
543.35	10259.5
543.449	10073.5
543.547	10113.5
543.646	10192.5
543.745	10134.5
543.843	10136.5
543.942	10217.5
544.041	10028.5
544.14	10347.5
544.238	10211.5
544.337	10419.5
544.436	10203.5
544.534	10521.5
544.633	10453.5
544.731	10141.5
544.83	10413.5
544.929	10382.5
545.027	10210.5
545.126	10384.5
545.224	10495.5
545.323	10406.5
545.421	10470.5
545.52	10461.5
545.619	10494.5
545.717	10425.5
545.816	10339.5
545.914	10369.5
546.013	10513.5
546.111	10503.5
546.209	10234.5
546.308	10232.5
546.406	10203.5
546.505	10256.5
546.603	10299.5
546.702	10205.5
546.8	10104.5
546.899	10216.5
546.997	10256.5
547.095	10186.5
547.194	10349.5
547.292	10196.5
547.39	10349.5
547.489	10278.5
547.587	10623.5
547.685	10136.5
547.784	10609.5
547.882	10373.5
547.98	10262.5
548.079	10347.5
548.177	10451.5
548.275	10267.5
548.373	10495.5
548.472	10251.5
548.57	10208.5
548.668	10480.5
548.766	10215.5
548.864	10429.5
548.963	10221.5
549.061	10637.5
549.159	10434.5
549.257	10608.5
549.355	10550.5
549.454	10494.5
549.552	10539.5
549.65	10575.5
549.748	10581.5
549.846	10289.5
549.944	10469.5
550.042	10289.5
550.14	10298.5
550.238	10322.5
550.336	10235.5
550.434	10096.5
550.532	10047.5
550.631	10166.5
550.729	10178.5
550.827	10212.5
550.925	10114.5
551.023	10119.5
551.121	10192.5
551.218	10014.5
551.316	10208.5
551.414	10183.5
551.512	10099.5
551.61	10399.5
551.708	10267.5
551.806	10368.5
551.904	10352.5
552.002	10467.5
552.1	10690.5
552.198	10687.5
552.296	11033.5
552.393	10996.5
552.491	11150.5
552.589	11269.5
552.687	11283.5
552.785	11458.5
552.882	11634.5
552.98	11732.5
553.078	11619.5
553.176	11732.5
553.274	11672.5
553.371	11527.5
553.469	11652.5
553.567	11445.5
553.665	11223.5
553.762	11808.5
553.86	11367.5
553.958	11113.5
554.055	10765.5
554.153	10827.5
554.251	10751.5
554.348	10591.5
554.446	10438.5
554.544	10471.5
554.641	10785.5
554.739	10303.5
554.837	10272.5
554.934	10170.5
555.032	10011.5
555.129	10020.5
555.227	10349.5
555.324	14286.5
555.422	10153.5
555.519	9812.5
555.617	9788.5
555.715	9573.5
555.812	10156.5
555.91	9507.5
556.007	9668.5
556.105	9474.5
556.202	9453.5
556.299	9370.5
556.397	9621.5
556.494	9336.5
556.592	9334.5
556.689	9457.5
556.787	9415.5
556.884	9350.5
556.981	9339.5
557.079	9336.5
557.176	9413.5
557.273	9351.5
557.371	9469.5
557.468	9232.5
557.566	9362.5
557.663	9284.5
557.76	9365.5
557.857	9266.5
557.955	9326.5
558.052	9454.5
558.149	9473.5
558.247	9477.5
558.344	9369.5
558.441	9153.5
558.538	9227.5
558.636	9320.5
558.733	9484.5
558.83	9304.5
558.927	9469.5
559.024	9394.5
559.122	9391.5
559.219	9375.5
559.316	9436.5
559.413	9643.5
559.51	9167.5
559.607	9312.5
559.704	9392.5
559.801	9426.5
559.899	9399.5
559.996	9691.5
560.093	9404.5
560.19	9319.5
560.287	9327.5
560.384	9624.5
560.481	9514.5
560.578	9471.5
560.675	9311.5
560.772	9645.5
560.869	9517.5
560.966	9599.5
561.063	9519.5
561.16	9629.5
561.257	9685.5
561.354	9594.5
561.451	9663.5
561.548	9654.5
561.645	9864.5
561.742	9635.5
561.838	9685.5
561.935	9615.5
562.032	9696.5
562.129	9925.5
562.226	9755.5
562.323	9755.5
562.42	9923.5
562.516	9850.5
562.613	9862.5
562.71	10006.5
562.807	10614.5
562.904	9924.5
563	9983.5
563.097	10180.5
563.194	10068.5
563.291	10144.5
563.387	10146.5
563.484	10327.5
563.581	10273.5
563.678	10453.5
563.774	10760.5
563.871	10559.5
563.968	10549.5
564.064	10734.5
564.161	10722.5
564.258	10718.5
564.354	11114.5
564.451	11152.5
564.548	11131.5
564.644	11461.5
564.741	11217.5
564.837	11413.5
564.934	11691.5
565.031	11725.5
565.127	11999.5
565.224	12164.5
565.32	12443.5
565.417	12483.5
565.513	12917.5
565.61	13107.5
565.706	13362.5
565.803	13600.5
565.899	14088.5
565.996	14435.5
566.092	14568.5
566.189	14568.5
566.285	14568.5
566.382	14568.5
566.478	14568.5
566.574	14568.5
566.671	14568.5
566.767	14568.5
566.864	14568.5
566.96	14568.5
567.056	14568.5
567.153	14568.5
567.249	14568.5
567.345	14568.5
567.442	14568.5
567.538	14568.5
567.634	14568.5
567.731	14568.5
567.827	14568.5
567.923	14568.5
568.019	14568.5
568.116	14568.5
568.212	14568.5
568.308	14568.5
568.404	14568.5
568.501	14568.5
568.597	14568.5
568.693	14568.5
568.789	14568.5
568.885	13951.5
568.982	13670.5
569.078	13228.5
569.174	13002.5
569.27	12643.5
569.366	12613.5
569.462	12120.5
569.558	11926.5
569.655	11939.5
569.751	11647.5
569.847	11506.5
569.943	11558.5
570.039	11321.5
570.135	11830.5
570.231	11325.5
570.327	11506.5
570.423	11319.5
570.519	11370.5
570.615	11387.5
570.711	11443.5
570.807	11476.5
570.903	11336.5
570.999	11285.5
571.095	11149.5
571.191	11106.5
571.287	10911.5
571.383	10724.5
571.479	10641.5
571.574	10382.5
571.67	10195.5
571.766	10270.5
571.862	9957.5
571.958	9818.5
572.054	9939.5
572.15	9691.5
572.246	9463.5
572.341	9642.5
572.437	9552.5
572.533	9566.5
572.629	9415.5
572.725	9379.5
572.82	9296.5
572.916	9221.5
573.012	9254.5
573.108	9371.5
573.203	9102.5
573.299	8993.5
573.395	9115.5
573.49	8927.5
573.586	8766.5
573.682	8851.5
573.778	8998.5
573.873	8804.5
573.969	8827.5
574.065	8707.5
574.16	8646.5
574.256	8800.5
574.351	8869.5
574.447	8755.5
574.543	8742.5
574.638	8784.5
574.734	8761.5
574.829	8973.5
574.925	8602.5
575.02	8536.5
575.116	8359.5
575.212	8416.5
575.307	8451.5
575.403	8290.5
575.498	8319.5
575.594	8167.5
575.689	8232.5
575.784	8115.5
575.88	8284.5
575.975	8048.5
576.071	7909.5
576.166	7963.5
576.262	7942.5
576.357	7982.5
576.452	8207.5
576.548	7983.5
576.643	7880.5
576.739	7890.5
576.834	7915.5
576.929	7972.5
577.025	8112.5
577.12	7660.5
577.215	7625.5
577.311	7692.5
577.406	7778.5
577.501	7683.5
577.597	7326.5
577.692	7700.5
577.787	7563.5
577.882	7415.5
577.978	7438.5
578.073	7301.5
578.168	7198.5
578.263	7233.5
578.358	7228.5
578.454	7067.5
578.549	7133.5
578.644	7165.5
578.739	7128.5
578.834	7025.5
578.929	7058.5
579.025	7009.5
579.12	7001.5
579.215	7155.5
579.31	7052.5
579.405	6790.5
579.5	7003.5
579.595	6952.5
579.69	6818.5
579.785	6823.5
579.88	6695.5
579.975	6717.5
580.07	6747.5
580.165	6633.5
580.26	6725.5
580.355	6602.5
580.45	6537.5
580.545	6482.5
580.64	6546.5
580.735	6596.5
580.83	6610.5
580.925	6357.5
581.02	6365.5
581.115	6420.5
581.21	6325.5
581.305	6483.5
581.4	6330.5
581.495	6321.5
581.589	6243.5
581.684	6203.5
581.779	6380.5
581.874	6284.5
581.969	6279.5
582.064	6204.5
582.158	6101.5
582.253	6075.5
582.348	6218.5
582.443	6115.5
582.537	6128.5
582.632	6318.5
582.727	6217.5
582.822	5943.5
582.916	6005.5
583.011	5992.5
583.106	6013.5
583.201	5927.5
583.295	6008.5
583.39	5816.5
583.485	5970.5
583.579	8317.5
583.674	6015.5
583.769	6126.5
583.863	5796.5
583.958	5786.5
584.052	5813.5
584.147	5751.5
584.242	5795.5
584.336	5735.5
584.431	5932.5
584.525	5758.5
584.62	5836.5
584.714	5729.5
584.809	5715.5
584.903	5721.5
584.998	5732.5
585.092	5633.5
585.187	5572.5
585.281	5495.5
585.376	5685.5
585.47	5764.5
585.565	5556.5
585.659	5431.5
585.754	5642.5
585.848	5606.5
585.942	5603.5
586.037	5585.5
586.131	6981.5
586.226	5547.5
586.32	5514.5
586.414	5301.5
586.509	5647.5
586.603	5554.5
586.697	5403.5
586.792	5395.5
586.886	5378.5
586.98	5589.5
587.075	5456.5
587.169	5330.5
587.263	5575.5
587.357	5259.5
587.452	5261.5
587.546	5416.5
587.64	5245.5
587.734	5272.5
587.829	5404.5
587.923	5308.5
588.017	5347.5
588.111	5187.5
588.205	5334.5
588.3	5302.5
588.394	5388.5
588.488	5497.5
588.582	5596.5
588.676	5972.5
588.77	7670.5
588.864	12527.5
588.958	12422.5
589.052	9699.5
589.147	7368.5
589.241	6316.5
589.335	6549.5
589.429	9283.5
589.523	10388.5
589.617	8907.5
589.711	7157.5
589.805	6143.5
589.899	5605.5
589.993	5500.5
590.087	5231.5
590.181	5243.5
590.275	5315.5
590.369	5162.5
590.462	5245.5
590.556	5091.5
590.65	5135.5
590.744	5155.5
590.838	5197.5
590.932	5213.5
591.026	5291.5
591.12	5465.5
591.214	5262.5
591.307	5271.5
591.401	5306.5
591.495	5436.5
591.589	5293.5
591.683	5363.5
591.777	5522.5
591.87	5883.5
591.964	5509.5
592.058	5579.5
592.152	5742.5
592.245	5703.5
592.339	5844.5
592.433	6005.5
592.527	5943.5
592.62	6003.5
592.714	6205.5
592.808	6164.5
592.901	6319.5
592.995	6180.5
593.089	6570.5
593.182	6408.5
593.276	6213.5
593.37	6273.5
593.463	6191.5
593.557	6220.5
593.65	6295.5
593.744	6265.5
593.837	6358.5
593.931	6367.5
594.025	10500.5
594.118	6621.5
594.212	6147.5
594.305	6260.5
594.399	6209.5
594.492	6371.5
594.586	5883.5
594.679	5750.5
594.773	5624.5
594.866	5627.5
594.96	5529.5
595.053	5284.5
595.146	5358.5
595.24	5314.5
595.333	5203.5
595.427	5006.5
595.52	5050.5
595.614	5131.5
595.707	4941.5
595.8	4826.5
595.894	4783.5
595.987	4646.5
596.08	4599.5
596.174	4978.5
596.267	4691.5
596.36	4754.5
596.454	4691.5
596.547	4500.5
596.64	4398.5
596.733	4411.5
596.827	4466.5
596.92	4370.5
597.013	4242.5
597.106	4215.5
597.2	4246.5
597.293	4233.5
597.386	4484.5
597.479	4191.5
597.572	4280.5
597.666	4172.5
597.759	4057.5
597.852	4192.5
597.945	4134.5
598.038	4131.5
598.131	4062.5
598.224	4057.5
598.317	4016.5
598.411	4081.5
598.504	4030.5
598.597	4053.5
598.69	3949.5
598.783	3986.5
598.876	4047.5
598.969	3936.5
599.062	3901.5
599.155	4075.5
599.248	3898.5
599.341	4058.5
599.434	3912.5
599.527	4047.5
599.62	3959.5
599.713	3815.5
599.806	3975.5
599.899	4227.5
599.991	3870.5
600.084	4116.5
600.177	3822.5
600.27	3836.5
600.363	4095.5
600.456	3811.5
600.549	3771.5
600.642	3764.5
600.734	3754.5
600.827	3786.5
600.92	3919.5
601.013	3840.5
601.106	3832.5
601.199	3747.5
601.291	3739.5
601.384	3779.5
601.477	3941.5
601.57	3869.5
601.662	3702.5
601.755	3698.5
601.848	3854.5
601.94	3767.5
602.033	3868.5
602.126	3695.5
602.219	3607.5
602.311	3743.5
602.404	3621.5
602.497	3649.5
602.589	3621.5
602.682	3726.5
602.774	3775.5
602.867	3662.5
602.96	3598.5
603.052	3703.5
603.145	3560.5
603.237	3637.5
603.33	3668.5
603.422	3765.5
603.515	3525.5
603.608	3677.5
603.7	3616.5
603.793	3550.5
603.885	3551.5
603.978	3630.5
604.07	3535.5
604.163	3428.5
604.255	3611.5
604.347	3536.5
604.44	3434.5
604.532	3615.5
604.625	3528.5
604.717	3396.5
604.81	3514.5
604.902	3508.5
604.994	3460.5
605.087	3492.5
605.179	3544.5
605.271	3554.5
605.364	3421.5
605.456	3619.5
605.548	3459.5
605.641	3515.5
605.733	3450.5
605.825	3431.5
605.918	3470.5
606.01	3656.5
606.102	3887.5
606.194	3402.5
606.287	3628.5
606.379	3434.5
606.471	3379.5
606.563	3522.5
606.655	3589.5
606.748	3505.5
606.84	3449.5
606.932	3438.5
607.024	3446.5
607.116	3444.5
607.208	3499.5
607.301	3501.5
607.393	3403.5
607.485	3477.5
607.577	3480.5
607.669	3491.5
607.761	3459.5
607.853	3779.5
607.945	3300.5
608.037	3268.5
608.129	3447.5
608.221	3343.5
608.313	3379.5
608.405	3493.5
608.497	3427.5
608.589	3318.5
608.681	3361.5
608.773	3516.5
608.865	3350.5
608.957	3329.5
609.049	3298.5
609.141	3415.5
609.233	3272.5
609.325	3351.5
609.417	3272.5
609.509	3435.5
609.601	3494.5
609.693	3447.5
609.784	3279.5
609.876	3339.5
609.968	3391.5
610.06	5607.5
610.152	3439.5
610.244	4215.5
610.335	3326.5
610.427	3225.5
610.519	3289.5
610.611	3252.5
610.702	3208.5
610.794	3171.5
610.886	3334.5
610.978	3201.5
611.069	3671.5
611.161	3174.5
611.253	3151.5
611.344	2989.5
611.436	2965.5
611.528	2907.5
611.62	2854.5
611.711	2862.5
611.803	2850.5
611.894	2818.5
611.986	2835.5
612.078	2770.5
612.169	2730.5
612.261	2701.5
612.352	2700.5
612.444	2554.5
612.536	2576.5
612.627	2596.5
612.719	2533.5
612.81	2411.5
612.902	2345.5
612.993	2425.5
613.085	2366.5
613.176	2236.5
613.268	2238.5
613.359	2168.5
613.451	2222.5
613.542	2196.5
613.634	2075.5
613.725	2149.5
613.816	2231.5
613.908	1948.5
613.999	1943.5
614.091	1915.5
614.182	1763.5
614.273	1876.5
614.365	1798.5
614.456	1682.5
614.547	1665.5
614.639	1618.5
614.73	1642.5
614.821	1664.5
614.913	1483.5
615.004	1508.5
615.095	1412.5
615.187	1364.5
