Data from 21g_HRC06701__85__329.txt Node

Date: Thu Apr 18 02:09:04 CDT 2024
User: Estudiantes 2
Spectrometer: HR+C0670
Trigger mode: 4
Integration Time (sec): 1.000000E0
Scans to average: 1
Electric dark correction enabled: true
Nonlinearity correction enabled: false
Boxcar width: 0
XAxis mode: Wavelengths
Number of Pixels in Spectrum: 2048
>>>>>Begin Spectral Data<<<<<
407.81	-121.88
407.921	-121.88
408.032	-121.88
408.143	-111.88
408.254	-135.88
408.365	45.12
408.476	284.12
408.587	-46.88
408.699	-12.88
408.81	7.12
408.921	-58.88
409.032	-57.88
409.143	62.12
409.254	25.12
409.365	49.12
409.476	13.12
409.587	-14.88
409.698	75.12
409.809	78.12
409.92	-21.88
410.031	-40.88
410.142	53.12
410.253	43.12
410.364	7.12
410.475	351.12
410.585	1937.12
410.696	2076.12
410.807	1967.12
410.918	2036.12
411.029	2127.12
411.14	2106.12
411.251	2091.12
411.362	2208.12
411.472	2136.12
411.583	2196.12
411.694	2224.12
411.805	2161.12
411.916	2154.12
412.026	2269.12
412.137	2142.12
412.248	2100.12
412.359	2154.12
412.47	2068.12
412.58	1982.12
412.691	2107.12
412.802	2083.12
412.912	2009.12
413.023	2076.12
413.134	2119.12
413.245	2129.12
413.355	2033.12
413.466	2102.12
413.577	2064.12
413.687	2130.12
413.798	1999.12
413.909	2113.12
414.019	2122.12
414.13	2168.12
414.24	2105.12
414.351	2115.12
414.462	2373.12
414.572	2240.12
414.683	2233.12
414.793	2195.12
414.904	2542.12
415.014	2076.12
415.125	2122.12
415.235	2178.12
415.346	2246.12
415.456	2270.12
415.567	2142.12
415.677	2175.12
415.788	2166.12
415.898	2123.12
416.009	2090.12
416.119	2182.12
416.23	2150.12
416.34	2118.12
416.45	2106.12
416.561	2868.12
416.671	2298.12
416.782	2100.12
416.892	2128.12
417.002	2258.12
417.113	2355.12
417.223	2224.12
417.333	2214.12
417.444	2235.12
417.554	2319.12
417.664	2336.12
417.775	2192.12
417.885	2342.12
417.995	2347.12
418.106	2539.12
418.216	2414.12
418.326	2505.12
418.436	2426.12
418.547	2522.12
418.657	2351.12
418.767	2626.12
418.877	2548.12
418.987	2516.12
419.098	2486.12
419.208	2514.12
419.318	2581.12
419.428	2626.12
419.538	2524.12
419.648	2565.12
419.759	2556.12
419.869	2516.12
419.979	2602.12
420.089	2557.12
420.199	2467.12
420.309	2643.12
420.419	2540.12
420.529	2522.12
420.639	3075.12
420.749	2694.12
420.859	2673.12
420.969	2671.12
421.079	2921.12
421.189	2703.12
421.299	2582.12
421.409	2661.12
421.519	2728.12
421.629	2749.12
421.739	2692.12
421.849	2716.12
421.959	2618.12
422.069	2832.12
422.179	2711.12
422.289	2850.12
422.399	2877.12
422.509	2951.12
422.619	5381.12
422.729	3151.12
422.838	2922.12
422.948	2966.12
423.058	2997.12
423.168	3056.12
423.278	3065.12
423.388	3120.12
423.498	3251.12
423.607	3167.12
423.717	3495.12
423.827	3454.12
423.937	3234.12
424.046	3298.12
424.156	3380.12
424.266	3199.12
424.376	3486.12
424.485	3401.12
424.595	3331.12
424.705	3185.12
424.815	3269.12
424.924	3710.12
425.034	3288.12
425.144	3151.12
425.253	3322.12
425.363	3392.12
425.473	3351.12
425.582	3232.12
425.692	3313.12
425.801	3273.12
425.911	3436.12
426.021	3444.12
426.13	3510.12
426.24	3545.12
426.349	3562.12
426.459	3402.12
426.568	3392.12
426.678	3506.12
426.787	3478.12
426.897	3444.12
427.006	3502.12
427.116	3537.12
427.225	3469.12
427.335	3571.12
427.444	3520.12
427.554	3549.12
427.663	3574.12
427.773	3561.12
427.882	3589.12
427.992	3572.12
428.101	3681.12
428.21	3625.12
428.32	3606.12
428.429	3623.12
428.539	4007.12
428.648	3643.12
428.757	3759.12
428.867	3903.12
428.976	3899.12
429.085	3731.12
429.195	3870.12
429.304	3843.12
429.413	3801.12
429.523	4001.12
429.632	3978.12
429.741	3856.12
429.85	3892.12
429.96	3993.12
430.069	3924.12
430.178	3938.12
430.287	4274.12
430.397	4041.12
430.506	4008.12
430.615	4077.12
430.724	4130.12
430.833	4146.12
430.943	4112.12
431.052	4127.12
431.161	4210.12
431.27	4272.12
431.379	4283.12
431.488	4590.12
431.597	4464.12
431.706	4607.12
431.816	4518.12
431.925	4480.12
432.034	4491.12
432.143	4473.12
432.252	4458.12
432.361	4554.12
432.47	4440.12
432.579	4456.12
432.688	4390.12
432.797	4591.12
432.906	4404.12
433.015	4577.12
433.124	4892.12
433.233	4534.12
433.342	4556.12
433.451	4620.12
433.56	4539.12
433.669	4598.12
433.778	4630.12
433.886	4731.12
433.995	4740.12
434.104	4953.12
434.213	4921.12
434.322	5022.12
434.431	5157.12
434.54	5225.12
434.649	5508.12
434.757	5414.12
434.866	5276.12
434.975	5135.12
435.084	5080.12
435.193	4946.12
435.301	5057.12
435.41	5009.12
435.519	5158.12
435.628	4553.12
435.737	4463.12
435.845	4337.12
435.954	4371.12
436.063	4366.12
436.171	4458.12
436.28	4381.12
436.389	4515.12
436.498	4279.12
436.606	4411.12
436.715	4592.12
436.823	4311.12
436.932	4271.12
437.041	4129.12
437.149	4181.12
437.258	4080.12
437.367	3987.12
437.475	4038.12
437.584	4339.12
437.692	4009.12
437.801	5574.12
437.91	4130.12
438.018	3990.12
438.127	3944.12
438.235	3953.12
438.344	4049.12
438.452	4010.12
438.561	3950.12
438.669	4107.12
438.778	3985.12
438.886	3969.12
438.995	3840.12
439.103	3971.12
439.212	3978.12
439.32	4044.12
439.428	3922.12
439.537	3952.12
439.645	4062.12
439.754	4121.12
439.862	4012.12
439.97	4014.12
440.079	4112.12
440.187	3986.12
440.295	4186.12
440.404	4146.12
440.512	4213.12
440.62	4178.12
440.729	4355.12
440.837	4380.12
440.945	5066.12
441.054	4534.12
441.162	4514.12
441.27	4890.12
441.378	4794.12
441.487	4771.12
441.595	5166.12
441.703	4850.12
441.811	4708.12
441.92	4705.12
442.028	4391.12
442.136	4566.12
442.244	4516.12
442.352	4504.12
442.461	4299.12
442.569	4475.12
442.677	4473.12
442.785	4362.12
442.893	4453.12
443.001	4478.12
443.109	4362.12
443.217	4466.12
443.325	4523.12
443.434	5131.12
443.542	4772.12
443.65	4621.12
443.758	4863.12
443.866	4704.12
443.974	5208.12
444.082	5045.12
444.19	5060.12
444.298	5252.12
444.406	5604.12
444.514	5659.12
444.622	5814.12
444.73	5878.12
444.838	5529.12
444.946	5438.12
445.054	5128.12
445.161	4952.12
445.269	4702.12
445.377	4851.12
445.485	4811.12
445.593	4624.12
445.701	4751.12
445.809	4666.12
445.917	4482.12
446.025	4478.12
446.132	4629.12
446.24	4455.12
446.348	4443.12
446.456	4437.12
446.564	4417.12
446.671	4476.12
446.779	4285.12
446.887	4270.12
446.995	4333.12
447.102	4408.12
447.21	4373.12
447.318	4329.12
447.426	4260.12
447.533	4622.12
447.641	5549.12
447.749	4368.12
447.856	4229.12
447.964	4269.12
448.072	4336.12
448.179	4251.12
448.287	4301.12
448.395	4358.12
448.502	4220.12
448.61	4308.12
448.718	4255.12
448.825	4328.12
448.933	4254.12
449.04	4304.12
449.148	4356.12
449.256	4333.12
449.363	4345.12
449.471	4433.12
449.578	4515.12
449.686	4432.12
449.793	4661.12
449.901	4495.12
450.008	4688.12
450.116	4653.12
450.223	4537.12
450.331	4737.12
450.438	4748.12
450.546	4838.12
450.653	4942.12
450.76	5042.12
450.868	4953.12
450.975	5234.12
451.083	5038.12
451.19	5113.12
451.297	5049.12
451.405	5123.12
451.512	4979.12
451.619	5139.12
451.727	5239.12
451.834	5105.12
451.941	5166.12
452.049	5114.12
452.156	5181.12
452.263	5200.12
452.371	5119.12
452.478	5248.12
452.585	5397.12
452.692	5204.12
452.8	5385.12
452.907	5449.12
453.014	5347.12
453.121	5345.12
453.229	5388.12
453.336	5506.12
453.443	5531.12
453.55	5471.12
453.657	5369.12
453.765	5535.12
453.872	5548.12
453.979	5570.12
454.086	5634.12
454.193	5636.12
454.3	5473.12
454.407	5597.12
454.514	5802.12
454.621	5561.12
454.729	5628.12
454.836	5644.12
454.943	5742.12
455.05	5710.12
455.157	5871.12
455.264	5664.12
455.371	5779.12
455.478	5876.12
455.585	6175.12
455.692	5943.12
455.799	6132.12
455.906	5930.12
456.013	5765.12
456.12	5924.12
456.227	5944.12
456.334	6099.12
456.44	6164.12
456.547	6105.12
456.654	6015.12
456.761	6144.12
456.868	6287.12
456.975	6231.12
457.082	6163.12
457.189	6167.12
457.296	6294.12
457.402	6275.12
457.509	6275.12
457.616	6542.12
457.723	6755.12
457.83	6511.12
457.936	6562.12
458.043	7060.12
458.15	6721.12
458.257	6894.12
458.363	7062.12
458.47	7039.12
458.577	7316.12
458.684	7283.12
458.79	7730.12
458.897	7645.12
459.004	7988.12
459.11	7939.12
459.217	7962.12
459.324	8197.12
459.43	8462.12
459.537	8584.12
459.644	8661.12
459.75	8821.12
459.857	9248.12
459.964	9104.12
460.07	9338.12
460.177	9271.12
460.283	9530.12
460.39	9658.12
460.496	9408.12
460.603	9522.12
460.71	9417.12
460.816	9411.12
460.923	9177.12
461.029	9278.12
461.136	9444.12
461.242	9270.12
461.349	9255.12
461.455	9325.12
461.562	9547.12
461.668	9613.12
461.774	9479.12
461.881	9817.12
461.987	9882.12
462.094	10336.12
462.2	10366.12
462.307	10160.12
462.413	10204.12
462.519	10685.12
462.626	11635.12
462.732	11657.12
462.838	12530.12
462.945	12850.12
463.051	12917.12
463.157	12276.12
463.264	11746.12
463.37	11259.12
463.476	10768.12
463.583	10735.12
463.689	10483.12
463.795	10674.12
463.901	10843.12
464.008	11024.12
464.114	11013.12
464.22	10962.12
464.326	10794.12
464.433	10259.12
464.539	10223.12
464.645	9989.12
464.751	10005.12
464.857	9622.12
464.963	9205.12
465.07	8898.12
465.176	8479.12
465.282	8294.12
465.388	8062.12
465.494	7842.12
465.6	7599.12
465.706	7318.12
465.812	7346.12
465.918	7459.12
466.024	7264.12
466.131	7203.12
466.237	6947.12
466.343	6830.12
466.449	6845.12
466.555	6634.12
466.661	6573.12
466.767	6409.12
466.873	6516.12
466.979	6649.12
467.085	6485.12
467.191	6505.12
467.296	6441.12
467.402	6356.12
467.508	6357.12
467.614	6446.12
467.72	6121.12
467.826	6111.12
467.932	6091.12
468.038	6051.12
468.144	5945.12
468.25	5869.12
468.355	5977.12
468.461	5806.12
468.567	5714.12
468.673	5813.12
468.779	5826.12
468.885	5826.12
468.99	5724.12
469.096	5875.12
469.202	5907.12
469.308	5908.12
469.413	6076.12
469.519	5964.12
469.625	5982.12
469.731	6058.12
469.836	6068.12
469.942	6297.12
470.048	6162.12
470.153	6170.12
470.259	6135.12
470.365	6283.12
470.47	6216.12
470.576	6009.12
470.682	5974.12
470.787	6002.12
470.893	5720.12
470.999	5768.12
471.104	5763.12
471.21	5542.12
471.315	5455.12
471.421	5420.12
471.527	5557.12
471.632	5450.12
471.738	5339.12
471.843	5304.12
471.949	5166.12
472.054	5237.12
472.16	5151.12
472.265	5121.12
472.371	4994.12
472.476	5152.12
472.582	5125.12
472.687	4892.12
472.793	4924.12
472.898	4877.12
473.003	4800.12
473.109	4888.12
473.214	4902.12
473.32	4803.12
473.425	4979.12
473.53	4889.12
473.636	4799.12
473.741	4770.12
473.847	4796.12
473.952	4897.12
474.057	4869.12
474.163	4867.12
474.268	4783.12
474.373	4829.12
474.478	4759.12
474.584	4782.12
474.689	4838.12
474.794	4865.12
474.9	5161.12
475.005	4767.12
475.11	4980.12
475.215	4800.12
475.321	4803.12
475.426	5018.12
475.531	4931.12
475.636	4816.12
475.741	4795.12
475.846	5048.12
475.952	5174.12
476.057	5052.12
476.162	5115.12
476.267	5182.12
476.372	5284.12
476.477	5057.12
476.582	5205.12
476.687	5030.12
476.793	5097.12
476.898	5088.12
477.003	5138.12
477.108	5257.12
477.213	5203.12
477.318	5415.12
477.423	5542.12
477.528	5673.12
477.633	5718.12
477.738	5698.12
477.843	5689.12
477.948	5921.12
478.053	5754.12
478.158	5900.12
478.263	5921.12
478.368	5978.12
478.473	6065.12
478.578	6067.12
478.682	6169.12
478.787	6217.12
478.892	6213.12
478.997	6246.12
479.102	6115.12
479.207	6098.12
479.312	6329.12
479.417	6216.12
479.521	6261.12
479.626	6361.12
479.731	6323.12
479.836	6488.12
479.941	6801.12
480.045	6884.12
480.15	7011.12
480.255	6876.12
480.36	6942.12
480.465	6904.12
480.569	7005.12
480.674	6712.12
480.779	6522.12
480.883	6527.12
480.988	6543.12
481.093	6428.12
481.197	6369.12
481.302	6400.12
481.407	6450.12
481.511	7838.12
481.616	6490.12
481.721	6370.12
481.825	6470.12
481.93	6356.12
482.035	6390.12
482.139	6351.12
482.244	6452.12
482.348	6459.12
482.453	6502.12
482.557	6590.12
482.662	6622.12
482.767	6636.12
482.871	6559.12
482.976	6570.12
483.08	6782.12
483.185	6926.12
483.289	6798.12
483.394	7019.12
483.498	6890.12
483.603	6924.12
483.707	7160.12
483.811	7240.12
483.916	7269.12
484.02	7167.12
484.125	7548.12
484.229	7348.12
484.333	7596.12
484.438	7600.12
484.542	7539.12
484.647	7623.12
484.751	7808.12
484.855	7797.12
484.96	7804.12
485.064	8016.12
485.168	8069.12
485.273	8000.12
485.377	8119.12
485.481	8314.12
485.585	8160.12
485.69	8180.12
485.794	8339.12
485.898	8303.12
486.002	8211.12
486.107	8418.12
486.211	8243.12
486.315	8378.12
486.419	8416.12
486.524	8445.12
486.628	8390.12
486.732	8321.12
486.836	8270.12
486.94	8463.12
487.044	8404.12
487.148	8404.12
487.253	8321.12
487.357	8486.12
487.461	8702.12
487.565	8434.12
487.669	8516.12
487.773	8444.12
487.877	8469.12
487.981	8482.12
488.085	8474.12
488.189	8415.12
488.293	8560.12
488.397	9021.12
488.501	8494.12
488.605	8387.12
488.709	8333.12
488.813	8401.12
488.917	8394.12
489.021	8384.12
489.125	8707.12
489.229	8489.12
489.333	8663.12
489.437	8548.12
489.541	8637.12
489.645	8458.12
489.749	8484.12
489.853	8641.12
489.956	8412.12
490.06	8473.12
490.164	8675.12
490.268	8419.12
490.372	8491.12
490.476	8454.12
490.579	8561.12
490.683	9128.12
490.787	8553.12
490.891	8424.12
490.995	8475.12
491.098	8449.12
491.202	8369.12
491.306	8507.12
491.41	8426.12
491.513	8443.12
491.617	8416.12
491.721	8596.12
491.824	8725.12
491.928	8493.12
492.032	8668.12
492.136	8523.12
492.239	8494.12
492.343	8590.12
492.446	8957.12
492.55	8686.12
492.654	8416.12
492.757	8568.12
492.861	8668.12
492.965	8378.12
493.068	8497.12
493.172	8598.12
493.275	8478.12
493.379	8473.12
493.482	8702.12
493.586	8774.12
493.689	8707.12
493.793	8609.12
493.896	8854.12
494	8731.12
494.103	8748.12
494.207	9065.12
494.31	8926.12
494.414	8567.12
494.517	8568.12
494.621	8425.12
494.724	8426.12
494.828	8588.12
494.931	8355.12
495.034	8396.12
495.138	8439.12
495.241	8336.12
495.345	9307.12
495.448	8452.12
495.551	8367.12
495.655	8313.12
495.758	8393.12
495.861	8373.12
495.965	8337.12
496.068	8281.12
496.171	8426.12
496.274	8484.12
496.378	8393.12
496.481	8505.12
496.584	8653.12
496.687	8722.12
496.791	8656.12
496.894	8704.12
496.997	8705.12
497.1	8631.12
497.204	8838.12
497.307	8877.12
497.41	9285.12
497.513	9398.12
497.616	9308.12
497.719	9274.12
497.823	9465.12
497.926	9720.12
498.029	9921.12
498.132	9907.12
498.235	10385.12
498.338	10686.12
498.441	10987.12
498.544	11134.12
498.647	11584.12
498.75	11983.12
498.853	12616.12
498.956	13036.12
499.059	13397.12
499.163	13876.12
499.266	14493.12
499.369	14567.12
499.471	14567.12
499.574	14567.12
499.677	14567.12
499.78	14567.12
499.883	14567.12
499.986	14567.12
500.089	14567.12
500.192	14567.12
500.295	14567.12
500.398	14567.12
500.501	14567.12
500.604	14567.12
500.707	14567.12
500.809	14567.12
500.912	14567.12
501.015	14567.12
501.118	14567.12
501.221	14567.12
501.324	14059.12
501.426	13326.12
501.529	12591.12
501.632	12238.12
501.735	11522.12
501.837	11311.12
501.94	10961.12
502.043	10579.12
502.146	10386.12
502.248	10278.12
502.351	9955.12
502.454	9644.12
502.557	9472.12
502.659	9297.12
502.762	8813.12
502.865	8658.12
502.967	8501.12
503.07	8410.12
503.173	8373.12
503.275	8246.12
503.378	8073.12
503.48	7984.12
503.583	7997.12
503.686	7865.12
503.788	8174.12
503.891	7921.12
503.993	8163.12
504.096	7970.12
504.198	8260.12
504.301	8195.12
504.403	8174.12
504.506	8011.12
504.608	7898.12
504.711	7664.12
504.813	7421.12
504.916	7198.12
505.018	6847.12
505.121	6691.12
505.223	6819.12
505.326	6701.12
505.428	6577.12
505.531	6488.12
505.633	6392.12
505.735	6217.12
505.838	6220.12
505.94	6196.12
506.042	6023.12
506.145	5996.12
506.247	6069.12
506.35	5887.12
506.452	6130.12
506.554	5922.12
506.656	5956.12
506.759	5789.12
506.861	5823.12
506.963	5830.12
507.066	5851.12
507.168	5898.12
507.27	5827.12
507.372	5646.12
507.475	5718.12
507.577	5704.12
507.679	5670.12
507.781	5597.12
507.883	5520.12
507.986	5580.12
508.088	5504.12
508.19	5487.12
508.292	5499.12
508.394	5441.12
508.496	5433.12
508.598	5395.12
508.701	5462.12
508.803	5462.12
508.905	5397.12
509.007	5372.12
509.109	5472.12
509.211	5422.12
509.313	5282.12
509.415	5243.12
509.517	5419.12
509.619	5316.12
509.721	5346.12
509.823	5292.12
509.925	5526.12
510.027	5228.12
510.129	5267.12
510.231	5324.12
510.333	5236.12
510.435	5241.12
510.537	5328.12
510.639	5228.12
510.741	5167.12
510.843	5272.12
510.945	5209.12
511.047	5376.12
511.148	5312.12
511.25	5231.12
511.352	5264.12
511.454	5195.12
511.556	5445.12
511.658	5260.12
511.76	5366.12
511.861	5539.12
511.963	5149.12
512.065	5328.12
512.167	5419.12
512.268	5448.12
512.37	5373.12
512.472	5331.12
512.574	5486.12
512.676	5401.12
512.777	5250.12
512.879	5381.12
512.981	5339.12
513.082	5246.12
513.184	5322.12
513.286	5810.12
513.387	5340.12
513.489	5584.12
513.591	5472.12
513.692	5485.12
513.794	5494.12
513.896	5409.12
513.997	5442.12
514.099	5507.12
514.2	5668.12
514.302	5512.12
514.404	5486.12
514.505	5504.12
514.607	5659.12
514.708	5654.12
514.81	5809.12
514.911	5778.12
515.013	5845.12
515.114	5818.12
515.216	5891.12
515.317	5909.12
515.419	5945.12
515.52	6142.12
515.622	6196.12
515.723	6193.12
515.825	6481.12
515.926	6316.12
516.027	6298.12
516.129	6371.12
516.23	6711.12
516.332	6674.12
516.433	6754.12
516.534	7072.12
516.636	7035.12
516.737	7225.12
516.838	8634.12
516.94	7811.12
517.041	7959.12
517.142	8205.12
517.244	8276.12
517.345	8378.12
517.446	8545.12
517.547	8498.12
517.649	8373.12
517.75	8493.12
517.851	8501.12
517.952	8581.12
518.054	8249.12
518.155	8212.12
518.256	7897.12
518.357	7890.12
518.458	7516.12
518.56	7452.12
518.661	7326.12
518.762	7228.12
518.863	7222.12
518.964	7225.12
519.065	6905.12
519.166	6795.12
519.268	6740.12
519.369	6982.12
519.47	6669.12
519.571	6638.12
519.672	6437.12
519.773	6413.12
519.874	6554.12
519.975	6464.12
520.076	6352.12
520.177	6453.12
520.278	6424.12
520.379	6411.12
520.48	6318.12
520.581	6269.12
520.682	6221.12
520.783	6283.12
520.884	6316.12
520.985	6275.12
521.086	6362.12
521.187	6413.12
521.288	6236.12
521.389	6298.12
521.489	6163.12
521.59	6158.12
521.691	6169.12
521.792	6258.12
521.893	6280.12
521.994	6280.12
522.095	6245.12
522.195	6165.12
522.296	6271.12
522.397	6225.12
522.498	6226.12
522.599	6072.12
522.699	6172.12
522.8	6142.12
522.901	6242.12
523.002	6173.12
523.102	6323.12
523.203	6139.12
523.304	6337.12
523.405	6132.12
523.505	6092.12
523.606	6083.12
523.707	6199.12
523.807	6150.12
523.908	6161.12
524.009	6232.12
524.109	6215.12
524.21	6194.12
524.31	6316.12
524.411	6413.12
524.512	6341.12
524.612	6322.12
524.713	6425.12
524.813	6272.12
524.914	6470.12
525.014	11194.12
525.115	6636.12
525.216	6236.12
525.316	6217.12
525.417	6349.12
525.517	6236.12
525.618	6228.12
525.718	6352.12
525.819	6190.12
525.919	6357.12
526.019	6285.12
526.12	6418.12
526.22	6300.12
526.321	6178.12
526.421	6171.12
526.522	6250.12
526.622	6216.12
526.722	6217.12
526.823	6397.12
526.923	6403.12
527.023	6438.12
527.124	6307.12
527.224	6377.12
527.324	6237.12
527.425	6273.12
527.525	6163.12
527.625	6185.12
527.726	6329.12
527.826	6345.12
527.926	6297.12
528.026	6410.12
528.127	6205.12
528.227	6352.12
528.327	6467.12
528.427	6318.12
528.528	6358.12
528.628	6319.12
528.728	6259.12
528.828	6296.12
528.928	6359.12
529.029	6364.12
529.129	6303.12
529.229	6272.12
529.329	6350.12
529.429	6263.12
529.529	6479.12
529.629	6412.12
529.729	6276.12
529.829	6370.12
529.93	6205.12
530.03	6248.12
530.13	6115.12
530.23	6316.12
530.33	6378.12
530.43	6121.12
530.53	6156.12
530.63	6382.12
530.73	6127.12
530.83	6188.12
530.93	6314.12
531.03	6278.12
531.13	6234.12
531.23	6231.12
531.33	6233.12
531.429	6301.12
531.529	6471.12
531.629	6258.12
531.729	6081.12
531.829	6186.12
531.929	6141.12
532.029	6154.12
532.129	6102.12
532.229	6237.12
532.328	6148.12
532.428	6122.12
532.528	6127.12
532.628	5959.12
532.728	6046.12
532.827	5911.12
532.927	6108.12
533.027	6015.12
533.127	6142.12
533.227	6080.12
533.326	6040.12
533.426	5925.12
533.526	6060.12
533.625	6229.12
533.725	6327.12
533.825	6037.12
533.924	5828.12
534.024	5777.12
534.124	5758.12
534.223	5859.12
534.323	6181.12
534.423	5851.12
534.522	5798.12
534.622	5689.12
534.722	5652.12
534.821	5882.12
534.921	5748.12
535.02	5493.12
535.12	5784.12
535.219	5692.12
535.319	5665.12
535.419	5639.12
535.518	5442.12
535.618	5482.12
535.717	5566.12
535.817	5514.12
535.916	5217.12
536.016	5427.12
536.115	5334.12
536.215	5240.12
536.314	5284.12
536.413	5276.12
536.513	5241.12
536.612	5290.12
536.712	5140.12
536.811	5234.12
536.91	5098.12
537.01	5081.12
537.109	5327.12
537.209	5130.12
537.308	5103.12
537.407	5165.12
537.507	5144.12
537.606	5026.12
537.705	5085.12
537.805	5081.12
537.904	4918.12
538.003	5078.12
538.102	5126.12
538.202	4956.12
538.301	5099.12
538.4	5081.12
538.499	5052.12
538.599	4932.12
538.698	5259.12
538.797	4906.12
538.896	4979.12
538.995	4907.12
539.095	4877.12
539.194	5044.12
539.293	4782.12
539.392	4790.12
539.491	4815.12
539.59	4726.12
539.689	4943.12
539.789	4830.12
539.888	4732.12
539.987	4751.12
540.086	4766.12
540.185	4708.12
540.284	4848.12
540.383	4675.12
540.482	4656.12
540.581	4650.12
540.68	4668.12
540.779	4756.12
540.878	4688.12
540.977	4678.12
541.076	4681.12
541.175	4628.12
541.274	4901.12
541.373	4664.12
541.472	4622.12
541.571	4617.12
541.67	5896.12
541.769	4707.12
541.868	4631.12
541.966	4738.12
542.065	4619.12
542.164	4529.12
542.263	4505.12
542.362	4538.12
542.461	4638.12
542.56	4602.12
542.658	4565.12
542.757	4427.12
542.856	4408.12
542.955	4427.12
543.054	4364.12
543.152	4575.12
543.251	4534.12
543.35	4653.12
543.449	4596.12
543.547	4514.12
543.646	4429.12
543.745	4539.12
543.843	4576.12
543.942	4580.12
544.041	4426.12
544.14	4626.12
544.238	4527.12
544.337	4795.12
544.436	4595.12
544.534	4755.12
544.633	4552.12
544.731	4550.12
544.83	4633.12
544.929	4626.12
545.027	4537.12
545.126	4681.12
545.224	4642.12
545.323	4479.12
545.421	4677.12
545.52	4590.12
545.619	4622.12
545.717	4578.12
545.816	4709.12
545.914	4619.12
546.013	4700.12
546.111	4804.12
546.209	4537.12
546.308	4472.12
546.406	4563.12
546.505	4657.12
546.603	4612.12
546.702	4556.12
546.8	4477.12
546.899	4403.12
546.997	4579.12
547.095	4599.12
547.194	4577.12
547.292	4513.12
547.39	4640.12
547.489	4515.12
547.587	4810.12
547.685	4698.12
547.784	4813.12
547.882	4722.12
547.98	4585.12
548.079	4599.12
548.177	4491.12
548.275	4543.12
548.373	4752.12
548.472	4484.12
548.57	4523.12
548.668	4709.12
548.766	4582.12
548.864	4683.12
548.963	4691.12
549.061	4667.12
549.159	4543.12
549.257	4824.12
549.355	4645.12
549.454	4676.12
549.552	4796.12
549.65	4695.12
549.748	4563.12
549.846	4637.12
549.944	4620.12
550.042	4450.12
550.14	4663.12
550.238	4605.12
550.336	4465.12
550.434	4415.12
550.532	4512.12
550.631	4629.12
550.729	4482.12
550.827	4450.12
550.925	4483.12
551.023	4444.12
551.121	4364.12
551.218	4537.12
551.316	4376.12
551.414	4481.12
551.512	4503.12
551.61	4531.12
551.708	4569.12
551.806	4683.12
551.904	4560.12
552.002	4624.12
552.1	4722.12
552.198	4697.12
552.296	4940.12
552.393	4928.12
552.491	5089.12
552.589	5055.12
552.687	5061.12
552.785	5092.12
552.882	5262.12
552.98	5419.12
553.078	5309.12
553.176	5231.12
553.274	5158.12
553.371	5284.12
553.469	5165.12
553.567	5166.12
553.665	5072.12
553.762	5644.12
553.86	5038.12
553.958	4889.12
554.055	4880.12
554.153	4920.12
554.251	4694.12
554.348	4803.12
554.446	4630.12
554.544	4653.12
554.641	4895.12
554.739	4615.12
554.837	4539.12
554.934	4569.12
555.032	4507.12
555.129	4474.12
555.227	4803.12
555.324	8357.12
555.422	4649.12
555.519	4355.12
555.617	4344.12
555.715	4170.12
555.812	4752.12
555.91	4179.12
556.007	4278.12
556.105	4321.12
556.202	4354.12
556.299	4239.12
556.397	4201.12
556.494	4158.12
556.592	4236.12
556.689	4192.12
556.787	4133.12
556.884	4151.12
556.981	4141.12
557.079	4123.12
557.176	4155.12
557.273	4174.12
557.371	4203.12
557.468	4120.12
557.566	4267.12
557.663	4102.12
557.76	4100.12
557.857	4082.12
557.955	4142.12
558.052	4187.12
558.149	4252.12
558.247	4257.12
558.344	4065.12
558.441	4058.12
558.538	4122.12
558.636	4142.12
558.733	4232.12
558.83	4267.12
558.927	4094.12
559.024	4142.12
559.122	4222.12
559.219	4181.12
559.316	4256.12
559.413	4370.12
559.51	4145.12
559.607	4049.12
559.704	4215.12
559.801	4220.12
559.899	4154.12
559.996	4469.12
560.093	4241.12
560.19	4058.12
560.287	4240.12
560.384	4458.12
560.481	4180.12
560.578	4196.12
560.675	4225.12
560.772	4294.12
560.869	4281.12
560.966	4521.12
561.063	4303.12
561.16	4253.12
561.257	4262.12
561.354	4349.12
561.451	4261.12
561.548	4298.12
561.645	4571.12
561.742	4291.12
561.838	4253.12
561.935	4346.12
562.032	4319.12
562.129	4322.12
562.226	4306.12
562.323	4421.12
562.42	4328.12
562.516	4280.12
562.613	4500.12
562.71	4459.12
562.807	5216.12
562.904	4565.12
563	4533.12
563.097	4572.12
563.194	4558.12
563.291	4492.12
563.387	4479.12
563.484	4619.12
563.581	4638.12
563.678	4641.12
563.774	5057.12
563.871	4715.12
563.968	4706.12
564.064	4745.12
564.161	4749.12
564.258	4859.12
564.354	5010.12
564.451	4899.12
564.548	4992.12
564.644	5012.12
564.741	5135.12
564.837	5027.12
564.934	5162.12
565.031	5218.12
565.127	5368.12
565.224	5485.12
565.32	5570.12
565.417	5726.12
565.513	5823.12
565.61	5856.12
565.706	6133.12
565.803	6208.12
565.899	6338.12
565.996	6719.12
566.092	6836.12
566.189	7126.12
566.285	7334.12
566.382	7586.12
566.478	7947.12
566.574	8220.12
566.671	8219.12
566.767	8151.12
566.864	8053.12
566.96	8223.12
567.056	8253.12
567.153	8551.12
567.249	8708.12
567.345	9152.12
567.442	9243.12
567.538	9629.12
567.634	9818.12
567.731	9821.12
567.827	9897.12
567.923	9772.12
568.019	9214.12
568.116	8605.12
568.212	8294.12
568.308	7977.12
568.404	7682.12
568.501	7223.12
568.597	7113.12
568.693	6732.12
568.789	7301.12
568.885	6345.12
568.982	6158.12
569.078	5929.12
569.174	5821.12
569.27	5607.12
569.366	5688.12
569.462	5571.12
569.558	5411.12
569.655	5329.12
569.751	5254.12
569.847	5134.12
569.943	5169.12
570.039	5085.12
570.135	5626.12
570.231	5065.12
570.327	5196.12
570.423	5108.12
570.519	5115.12
570.615	5090.12
570.711	5258.12
570.807	5191.12
570.903	5140.12
570.999	5188.12
571.095	5199.12
571.191	4968.12
571.287	5008.12
571.383	4936.12
571.479	4765.12
571.574	4684.12
571.67	4615.12
571.766	4723.12
571.862	4488.12
571.958	4522.12
572.054	4550.12
572.15	4239.12
572.246	4217.12
572.341	4382.12
572.437	4267.12
572.533	4288.12
572.629	4233.12
572.725	4208.12
572.82	4048.12
572.916	4224.12
573.012	4133.12
573.108	4213.12
573.203	4143.12
573.299	4024.12
573.395	4018.12
573.49	3920.12
573.586	4040.12
573.682	4005.12
573.778	4143.12
573.873	4000.12
573.969	3914.12
574.065	3908.12
574.16	3986.12
574.256	3969.12
574.351	4027.12
574.447	4035.12
574.543	3969.12
574.638	3965.12
574.734	3965.12
574.829	4223.12
574.925	3929.12
575.02	3836.12
575.116	3874.12
575.212	3699.12
575.307	3923.12
575.403	3721.12
575.498	3792.12
575.594	3709.12
575.689	3801.12
575.784	3639.12
575.88	3676.12
575.975	3707.12
576.071	3690.12
576.166	3503.12
576.262	3658.12
576.357	3681.12
576.452	3773.12
576.548	3645.12
576.643	3632.12
576.739	3638.12
576.834	3505.12
576.929	3656.12
577.025	3771.12
577.12	3455.12
577.215	3507.12
577.311	3557.12
577.406	3588.12
577.501	3644.12
577.597	3357.12
577.692	3484.12
577.787	3444.12
577.882	3370.12
577.978	3354.12
578.073	3317.12
578.168	3320.12
578.263	3230.12
578.358	3266.12
578.454	3269.12
578.549	3292.12
578.644	3210.12
578.739	3348.12
578.834	3227.12
578.929	3164.12
579.025	3179.12
579.12	3355.12
579.215	3446.12
579.31	3376.12
579.405	3159.12
579.5	3199.12
579.595	3169.12
579.69	3073.12
579.785	3039.12
579.88	3056.12
579.975	3058.12
580.07	3084.12
580.165	3051.12
580.26	3149.12
580.355	3064.12
580.45	2943.12
580.545	2945.12
580.64	3121.12
580.735	3059.12
580.83	3070.12
580.925	2934.12
581.02	2942.12
581.115	2901.12
581.21	2790.12
581.305	2924.12
581.4	2966.12
581.495	2927.12
581.589	2944.12
581.684	2827.12
581.779	2871.12
581.874	2996.12
581.969	2987.12
582.064	2861.12
582.158	2798.12
582.253	2754.12
582.348	2765.12
582.443	2932.12
582.537	2886.12
582.632	3015.12
582.727	2863.12
582.822	2808.12
582.916	2701.12
583.011	2737.12
583.106	2841.12
583.201	2694.12
583.295	2717.12
583.39	2698.12
583.485	2673.12
583.579	4824.12
583.674	2868.12
583.769	2938.12
583.863	2681.12
583.958	2703.12
584.052	2684.12
584.147	2560.12
584.242	2613.12
584.336	2675.12
584.431	2783.12
584.525	2586.12
584.62	2901.12
584.714	2734.12
584.809	2616.12
584.903	2678.12
584.998	2712.12
585.092	2517.12
585.187	2657.12
585.281	2582.12
585.376	2555.12
585.47	2596.12
585.565	2658.12
585.659	2519.12
585.754	2562.12
585.848	2567.12
585.942	2539.12
586.037	2518.12
586.131	3826.12
586.226	2646.12
586.32	2550.12
586.414	2401.12
586.509	2648.12
586.603	2638.12
586.697	2554.12
586.792	2567.12
586.886	2369.12
586.98	2648.12
587.075	2528.12
587.169	2462.12
587.263	2676.12
587.357	2553.12
587.452	2447.12
587.546	2534.12
587.64	2443.12
587.734	2584.12
587.829	2538.12
587.923	2469.12
588.017	2554.12
588.111	2524.12
588.205	2643.12
588.3	2592.12
588.394	2585.12
588.488	2643.12
588.582	2800.12
588.676	3245.12
588.77	4762.12
588.864	9470.12
588.958	9488.12
589.052	6731.12
589.147	4562.12
589.241	3608.12
589.335	3572.12
589.429	6360.12
589.523	7724.12
589.617	6025.12
589.711	4169.12
589.805	3200.12
589.899	2899.12
589.993	2565.12
590.087	2480.12
590.181	2524.12
590.275	2509.12
590.369	2488.12
590.462	2405.12
590.556	2379.12
590.65	2335.12
590.744	2442.12
590.838	2437.12
590.932	2465.12
591.026	2594.12
591.12	2699.12
591.214	2518.12
591.307	2484.12
591.401	2492.12
591.495	2590.12
591.589	2475.12
591.683	2570.12
591.777	2577.12
591.87	2924.12
591.964	2655.12
592.058	2603.12
592.152	2720.12
592.245	2652.12
592.339	2837.12
592.433	2912.12
592.527	2898.12
592.62	2831.12
592.714	2835.12
592.808	3009.12
592.901	3009.12
592.995	2907.12
593.089	3284.12
593.182	3053.12
593.276	2955.12
593.37	2889.12
593.463	3028.12
593.557	3099.12
593.65	2982.12
593.744	3044.12
593.837	3198.12
593.931	3056.12
594.025	6535.12
594.118	3364.12
594.212	2953.12
594.305	2829.12
594.399	2978.12
594.492	3238.12
594.586	2772.12
594.679	2725.12
594.773	2684.12
594.866	2737.12
594.96	2667.12
595.053	2605.12
595.146	2461.12
595.24	2412.12
595.333	2491.12
595.427	2304.12
595.52	2301.12
595.614	2565.12
595.707	2337.12
595.8	2299.12
595.894	2228.12
595.987	2181.12
596.08	2058.12
596.174	2487.12
596.267	2314.12
596.36	2254.12
596.454	2353.12
596.547	2189.12
596.64	2022.12
596.733	2006.12
596.827	2163.12
596.92	2061.12
597.013	1899.12
597.106	1981.12
597.2	1971.12
597.293	1881.12
597.386	2156.12
597.479	2013.12
597.572	1953.12
597.666	1935.12
597.759	1983.12
597.852	2040.12
597.945	1912.12
598.038	1914.12
598.131	1940.12
598.224	1863.12
598.317	2053.12
598.411	1973.12
598.504	1844.12
598.597	1933.12
598.69	1958.12
598.783	1846.12
598.876	1890.12
598.969	1991.12
599.062	1790.12
599.155	1905.12
599.248	1852.12
599.341	1865.12
599.434	1815.12
599.527	1957.12
599.62	1805.12
599.713	1798.12
599.806	1871.12
599.899	2087.12
599.991	1801.12
600.084	2029.12
600.177	1859.12
600.27	1762.12
600.363	1994.12
600.456	1847.12
600.549	1838.12
600.642	1702.12
600.734	1759.12
600.827	1790.12
600.92	1915.12
601.013	1820.12
601.106	1948.12
601.199	1710.12
601.291	1759.12
601.384	1838.12
601.477	1966.12
601.57	1877.12
601.662	1757.12
601.755	1781.12
601.848	1777.12
601.94	1732.12
602.033	1920.12
602.126	1727.12
602.219	1665.12
602.311	1940.12
602.404	1693.12
602.497	1717.12
602.589	1726.12
602.682	1752.12
602.774	1776.12
602.867	1781.12
602.96	1739.12
603.052	1725.12
603.145	1756.12
603.237	1787.12
603.33	1678.12
603.422	1844.12
603.515	1750.12
603.608	1767.12
603.7	1743.12
603.793	1811.12
603.885	1745.12
603.978	1678.12
604.07	1710.12
604.163	1685.12
604.255	1703.12
604.347	1666.12
604.44	1662.12
604.532	1709.12
604.625	1718.12
604.717	1690.12
604.81	1679.12
604.902	1648.12
604.994	1727.12
605.087	1644.12
605.179	1616.12
605.271	1746.12
605.364	1667.12
605.456	1676.12
605.548	1612.12
605.641	1744.12
605.733	1626.12
605.825	1650.12
605.918	1685.12
606.01	1853.12
606.102	2133.12
606.194	1753.12
606.287	1843.12
606.379	1658.12
606.471	1652.12
606.563	1743.12
606.655	1674.12
606.748	1710.12
606.84	1662.12
606.932	1740.12
607.024	1593.12
607.116	1647.12
607.208	1602.12
607.301	1613.12
607.393	1618.12
607.485	1636.12
607.577	1618.12
607.669	1741.12
607.761	1697.12
607.853	1908.12
607.945	1621.12
608.037	1610.12
608.129	1650.12
608.221	1605.12
608.313	1596.12
608.405	1671.12
608.497	1639.12
608.589	1629.12
608.681	1623.12
608.773	1701.12
608.865	1714.12
608.957	1608.12
609.049	1544.12
609.141	1710.12
609.233	1645.12
609.325	1571.12
609.417	1580.12
609.509	1677.12
609.601	1709.12
609.693	1740.12
609.784	1668.12
609.876	1595.12
609.968	1630.12
610.06	3921.12
610.152	1836.12
610.244	1885.12
610.335	1610.12
610.427	1596.12
610.519	1519.12
610.611	1614.12
610.702	1593.12
610.794	1571.12
610.886	1689.12
610.978	1613.12
611.069	1978.12
611.161	1573.12
611.253	1583.12
611.344	1425.12
611.436	1419.12
611.528	1548.12
611.62	1353.12
611.711	1417.12
611.803	1420.12
611.894	1377.12
611.986	1325.12
612.078	1365.12
612.169	1430.12
612.261	1268.12
612.352	1248.12
612.444	1283.12
612.536	1352.12
612.627	1258.12
612.719	1185.12
612.81	1187.12
612.902	1151.12
612.993	1215.12
613.085	1165.12
613.176	1049.12
613.268	1090.12
613.359	1147.12
613.451	1057.12
613.542	1094.12
613.634	1022.12
613.725	1069.12
613.816	1117.12
613.908	988.12
613.999	970.12
614.091	841.12
614.182	860.12
614.273	950.12
614.365	909.12
614.456	845.12
614.547	841.12
614.639	723.12
614.73	797.12
614.821	878.12
614.913	729.12
615.004	649.12
615.095	684.12
615.187	676.12
