Data from 7g_HRC06701__38__160.txt Node

Date: Thu Apr 18 01:50:27 CDT 2024
User: Estudiantes 2
Spectrometer: HR+C0670
Trigger mode: 4
Integration Time (sec): 1.000000E0
Scans to average: 1
Electric dark correction enabled: true
Nonlinearity correction enabled: false
Boxcar width: 0
XAxis mode: Wavelengths
Number of Pixels in Spectrum: 2048
>>>>>Begin Spectral Data<<<<<
407.81	-124.56
407.921	-124.56
408.032	-124.56
408.143	-114.56
408.254	-116.56
408.365	47.44
408.476	268.44
408.587	-20.56
408.699	-25.56
408.81	-25.56
408.921	-44.56
409.032	-66.56
409.143	40.44
409.254	50.44
409.365	64.44
409.476	-43.56
409.587	57.44
409.698	53.44
409.809	68.44
409.92	3.44
410.031	-52.56
410.142	42.44
410.253	40.44
410.364	48.44
410.475	435.44
410.585	2261.44
410.696	2545.44
410.807	2458.44
410.918	2387.44
411.029	2530.44
411.14	2464.44
411.251	2497.44
411.362	2589.44
411.472	2511.44
411.583	2537.44
411.694	2604.44
411.805	2460.44
411.916	2515.44
412.026	2544.44
412.137	2541.44
412.248	2522.44
412.359	2578.44
412.47	2494.44
412.58	2441.44
412.691	2509.44
412.802	2538.44
412.912	2429.44
413.023	2466.44
413.134	2504.44
413.245	2537.44
413.355	2540.44
413.466	2512.44
413.577	2550.44
413.687	2487.44
413.798	2362.44
413.909	2608.44
414.019	2459.44
414.13	2506.44
414.24	2517.44
414.351	2591.44
414.462	2681.44
414.572	2554.44
414.683	2581.44
414.793	2552.44
414.904	2841.44
415.014	2555.44
415.125	2475.44
415.235	2460.44
415.346	2593.44
415.456	2569.44
415.567	2562.44
415.677	2527.44
415.788	2505.44
415.898	2462.44
416.009	2456.44
416.119	2532.44
416.23	2459.44
416.34	2430.44
416.45	2556.44
416.561	3063.44
416.671	2555.44
416.782	2460.44
416.892	2429.44
417.002	2519.44
417.113	2630.44
417.223	2468.44
417.333	2493.44
417.444	2549.44
417.554	2557.44
417.664	2592.44
417.775	2492.44
417.885	2654.44
417.995	2576.44
418.106	2807.44
418.216	2675.44
418.326	2618.44
418.436	2649.44
418.547	2774.44
418.657	2675.44
418.767	2854.44
418.877	2865.44
418.987	2837.44
419.098	2790.44
419.208	2860.44
419.318	2933.44
419.428	2831.44
419.538	2804.44
419.648	2910.44
419.759	2824.44
419.869	2801.44
419.979	2889.44
420.089	2845.44
420.199	2794.44
420.309	2886.44
420.419	2845.44
420.529	2785.44
420.639	3208.44
420.749	2928.44
420.859	2929.44
420.969	2869.44
421.079	3155.44
421.189	2949.44
421.299	2920.44
421.409	2927.44
421.519	3029.44
421.629	3064.44
421.739	2957.44
421.849	2946.44
421.959	3027.44
422.069	3042.44
422.179	2969.44
422.289	2955.44
422.399	3105.44
422.509	3160.44
422.619	6160.44
422.729	3327.44
422.838	3114.44
422.948	3133.44
423.058	3174.44
423.168	3235.44
423.278	3134.44
423.388	3258.44
423.498	3375.44
423.607	3287.44
423.717	3530.44
423.827	3504.44
423.937	3338.44
424.046	3402.44
424.156	3507.44
424.266	3473.44
424.376	3630.44
424.485	3563.44
424.595	3557.44
424.705	3458.44
424.815	3505.44
424.924	3972.44
425.034	3621.44
425.144	3467.44
425.253	3522.44
425.363	3718.44
425.473	3664.44
425.582	3608.44
425.692	3662.44
425.801	3586.44
425.911	3843.44
426.021	3851.44
426.13	3950.44
426.24	3946.44
426.349	3936.44
426.459	3839.44
426.568	3843.44
426.678	4029.44
426.787	3995.44
426.897	3876.44
427.006	3963.44
427.116	3976.44
427.225	3959.44
427.335	4084.44
427.444	4086.44
427.554	4050.44
427.663	4086.44
427.773	4029.44
427.882	4100.44
427.992	4028.44
428.101	4133.44
428.21	4128.44
428.32	4242.44
428.429	4101.44
428.539	4467.44
428.648	4267.44
428.757	4302.44
428.867	4408.44
428.976	4482.44
429.085	4346.44
429.195	4381.44
429.304	4366.44
429.413	4412.44
429.523	4508.44
429.632	4522.44
429.741	4458.44
429.85	4397.44
429.96	4646.44
430.069	4426.44
430.178	4483.44
430.287	4775.44
430.397	4477.44
430.506	4486.44
430.615	4592.44
430.724	4630.44
430.833	4632.44
430.943	4719.44
431.052	4738.44
431.161	4711.44
431.27	4771.44
431.379	4791.44
431.488	5026.44
431.597	4844.44
431.706	5027.44
431.816	4856.44
431.925	4790.44
432.034	4933.44
432.143	4913.44
432.252	4875.44
432.361	4930.44
432.47	4967.44
432.579	4808.44
432.688	4869.44
432.797	4971.44
432.906	4751.44
433.015	4967.44
433.124	5288.44
433.233	5049.44
433.342	5014.44
433.451	5068.44
433.56	4994.44
433.669	4919.44
433.778	4942.44
433.886	5136.44
433.995	4924.44
434.104	5230.44
434.213	5090.44
434.322	5063.44
434.431	5255.44
434.54	5389.44
434.649	5429.44
434.757	5358.44
434.866	5222.44
434.975	5205.44
435.084	5222.44
435.193	5170.44
435.301	5282.44
435.41	5338.44
435.519	5315.44
435.628	4970.44
435.737	4835.44
435.845	4729.44
435.954	4704.44
436.063	4678.44
436.171	4691.44
436.28	4706.44
436.389	4760.44
436.498	4656.44
436.606	4619.44
436.715	4812.44
436.823	4511.44
436.932	4471.44
437.041	4501.44
437.149	4489.44
437.258	4462.44
437.367	4372.44
437.475	4261.44
437.584	4582.44
437.692	4388.44
437.801	5767.44
437.91	4405.44
438.018	4343.44
438.127	4196.44
438.235	4338.44
438.344	4386.44
438.452	4374.44
438.561	4231.44
438.669	4273.44
438.778	4204.44
438.886	4268.44
438.995	4152.44
439.103	4256.44
439.212	4208.44
439.32	4318.44
439.428	4192.44
439.537	4256.44
439.645	4339.44
439.754	4340.44
439.862	4135.44
439.97	4310.44
440.079	4246.44
440.187	4192.44
440.295	4424.44
440.404	4315.44
440.512	4327.44
440.62	4333.44
440.729	4337.44
440.837	4469.44
440.945	5018.44
441.054	4535.44
441.162	4463.44
441.27	4638.44
441.378	4586.44
441.487	4540.44
441.595	5089.44
441.703	4669.44
441.811	4473.44
441.92	4588.44
442.028	4506.44
442.136	4489.44
442.244	4502.44
442.352	4488.44
442.461	4390.44
442.569	4372.44
442.677	4429.44
442.785	4509.44
442.893	4440.44
443.001	4414.44
443.109	4394.44
443.217	4455.44
443.325	4518.44
443.434	4983.44
443.542	4716.44
443.65	4603.44
443.758	4610.44
443.866	4616.44
443.974	4858.44
444.082	4703.44
444.19	4839.44
444.298	4835.44
444.406	5027.44
444.514	4945.44
444.622	4951.44
444.73	5120.44
444.838	4865.44
444.946	4997.44
445.054	4770.44
445.161	4762.44
445.269	4692.44
445.377	4758.44
445.485	4660.44
445.593	4728.44
445.701	4829.44
445.809	4715.44
445.917	4592.44
446.025	4543.44
446.132	4878.44
446.24	4659.44
446.348	4644.44
446.456	4556.44
446.564	4508.44
446.671	4549.44
446.779	4643.44
446.887	4482.44
446.995	4564.44
447.102	4582.44
447.21	4641.44
447.318	4599.44
447.426	4469.44
447.533	4772.44
447.641	5632.44
447.749	4521.44
447.856	4447.44
447.964	4522.44
448.072	4588.44
448.179	4491.44
448.287	4611.44
448.395	4614.44
448.502	4562.44
448.61	4663.44
448.718	4523.44
448.825	4675.44
448.933	4660.44
449.04	4653.44
449.148	4680.44
449.256	4731.44
449.363	4698.44
449.471	4745.44
449.578	4814.44
449.686	4743.44
449.793	4964.44
449.901	4792.44
450.008	4843.44
450.116	4878.44
450.223	4892.44
450.331	5079.44
450.438	5076.44
450.546	5163.44
450.653	5278.44
450.76	5218.44
450.868	5125.44
450.975	5436.44
451.083	5249.44
451.19	5290.44
451.297	5237.44
451.405	5315.44
451.512	5209.44
451.619	5389.44
451.727	5452.44
451.834	5314.44
451.941	5382.44
452.049	5403.44
452.156	5341.44
452.263	5418.44
452.371	5488.44
452.478	5482.44
452.585	5567.44
452.692	5497.44
452.8	5654.44
452.907	5728.44
453.014	5634.44
453.121	5658.44
453.229	5700.44
453.336	5687.44
453.443	5753.44
453.55	5549.44
453.657	5735.44
453.765	5832.44
453.872	5682.44
453.979	5826.44
454.086	5837.44
454.193	5804.44
454.3	5769.44
454.407	5967.44
454.514	6029.44
454.621	5799.44
454.729	5851.44
454.836	6009.44
454.943	5948.44
455.05	5944.44
455.157	6209.44
455.264	5930.44
455.371	6122.44
455.478	6135.44
455.585	7481.44
455.692	6230.44
455.799	6359.44
455.906	6225.44
456.013	6195.44
456.12	6143.44
456.227	6254.44
456.334	6226.44
456.44	6418.44
456.547	6436.44
456.654	6293.44
456.761	6332.44
456.868	6537.44
456.975	6535.44
457.082	6445.44
457.189	6379.44
457.296	6341.44
457.402	6434.44
457.509	6349.44
457.616	6649.44
457.723	6846.44
457.83	6780.44
457.936	6668.44
458.043	7081.44
458.15	6762.44
458.257	7014.44
458.363	7053.44
458.47	7039.44
458.577	7232.44
458.684	7216.44
458.79	7347.44
458.897	7387.44
459.004	7650.44
459.11	7432.44
459.217	7501.44
459.324	7765.44
459.43	7970.44
459.537	8097.44
459.644	7906.44
459.75	7960.44
459.857	8281.44
459.964	8050.44
460.07	8039.44
460.177	8179.44
460.283	8243.44
460.39	8455.44
460.496	8075.44
460.603	8242.44
460.71	8298.44
460.816	8204.44
460.923	8044.44
461.029	8214.44
461.136	8380.44
461.242	8306.44
461.349	8386.44
461.455	8467.44
461.562	8547.44
461.668	8526.44
461.774	8382.44
461.881	8487.44
461.987	8601.44
462.094	8797.44
462.2	8713.44
462.307	8805.44
462.413	8705.44
462.519	8972.44
462.626	9372.44
462.732	9194.44
462.838	9506.44
462.945	9536.44
463.051	9561.44
463.157	9618.44
463.264	9463.44
463.37	9341.44
463.476	9176.44
463.583	8987.44
463.689	8907.44
463.795	8994.44
463.901	8935.44
464.008	8978.44
464.114	8955.44
464.22	8923.44
464.326	8867.44
464.433	8497.44
464.539	8701.44
464.645	8225.44
464.751	8489.44
464.857	8068.44
464.963	7833.44
465.07	7803.44
465.176	7674.44
465.282	7541.44
465.388	7302.44
465.494	7108.44
465.6	7104.44
465.706	6848.44
465.812	6824.44
465.918	6890.44
466.024	6637.44
466.131	6510.44
466.237	6427.44
466.343	6414.44
466.449	6343.44
466.555	6255.44
466.661	6149.44
466.767	6076.44
466.873	6055.44
466.979	6294.44
467.085	6037.44
467.191	6077.44
467.296	5990.44
467.402	5835.44
467.508	5834.44
467.614	5997.44
467.72	5701.44
467.826	5710.44
467.932	5723.44
468.038	5547.44
468.144	5547.44
468.25	5601.44
468.355	5576.44
468.461	5611.44
468.567	5540.44
468.673	5496.44
468.779	5418.44
468.885	5476.44
468.99	5347.44
469.096	5437.44
469.202	5497.44
469.308	5576.44
469.413	5533.44
469.519	5418.44
469.625	5525.44
469.731	5467.44
469.836	5423.44
469.942	5699.44
470.048	5550.44
470.153	5427.44
470.259	5506.44
470.365	5594.44
470.47	5571.44
470.576	5424.44
470.682	5478.44
470.787	5373.44
470.893	5252.44
470.999	5366.44
471.104	5203.44
471.21	5040.44
471.315	5019.44
471.421	5045.44
471.527	5290.44
471.632	5132.44
471.738	5007.44
471.843	4896.44
471.949	4937.44
472.054	4958.44
472.16	4875.44
472.265	4809.44
472.371	4803.44
472.476	4805.44
472.582	4825.44
472.687	4700.44
472.793	4753.44
472.898	4727.44
473.003	4675.44
473.109	4708.44
473.214	4606.44
473.32	4650.44
473.425	4715.44
473.53	4531.44
473.636	4590.44
473.741	4638.44
473.847	4580.44
473.952	4626.44
474.057	4614.44
474.163	4658.44
474.268	4503.44
474.373	4521.44
474.478	4618.44
474.584	4459.44
474.689	4590.44
474.794	4710.44
474.9	4806.44
475.005	4449.44
475.11	4729.44
475.215	4510.44
475.321	4597.44
475.426	4753.44
475.531	4696.44
475.636	4485.44
475.741	4463.44
475.846	4825.44
475.952	4808.44
476.057	4682.44
476.162	4826.44
476.267	4814.44
476.372	4931.44
476.477	4678.44
476.582	4743.44
476.687	4644.44
476.793	4823.44
476.898	4751.44
477.003	4722.44
477.108	4769.44
477.213	4822.44
477.318	4789.44
477.423	5039.44
477.528	5032.44
477.633	4996.44
477.738	5046.44
477.843	5078.44
477.948	5038.44
478.053	5048.44
478.158	5128.44
478.263	5191.44
478.368	5101.44
478.473	5270.44
478.578	5266.44
478.682	5153.44
478.787	5270.44
478.892	5331.44
478.997	5360.44
479.102	5314.44
479.207	5362.44
479.312	5437.44
479.417	5398.44
479.521	5443.44
479.626	5489.44
479.731	5491.44
479.836	5444.44
479.941	5631.44
480.045	5492.44
480.15	5640.44
480.255	5707.44
480.36	5618.44
480.465	5754.44
480.569	5937.44
480.674	5746.44
480.779	5643.44
480.883	5632.44
480.988	5691.44
481.093	5571.44
481.197	5528.44
481.302	5626.44
481.407	5585.44
481.511	7252.44
481.616	5723.44
481.721	5609.44
481.825	5795.44
481.93	5694.44
482.035	5569.44
482.139	5607.44
482.244	5597.44
482.348	5618.44
482.453	5686.44
482.557	5805.44
482.662	5763.44
482.767	5646.44
482.871	5678.44
482.976	5932.44
483.08	5783.44
483.185	5901.44
483.289	6004.44
483.394	5873.44
483.498	5942.44
483.603	5934.44
483.707	6118.44
483.811	6138.44
483.916	6188.44
484.02	6142.44
484.125	6238.44
484.229	6217.44
484.333	6469.44
484.438	6261.44
484.542	6266.44
484.647	6414.44
484.751	6390.44
484.855	6508.44
484.96	6388.44
485.064	6552.44
485.168	6550.44
485.273	6615.44
485.377	6575.44
485.481	6796.44
485.585	6566.44
485.69	6843.44
485.794	6719.44
485.898	6703.44
486.002	6867.44
486.107	6767.44
486.211	6783.44
486.315	6921.44
486.419	6952.44
486.524	6879.44
486.628	6859.44
486.732	7033.44
486.836	6763.44
486.94	6934.44
487.044	6895.44
487.148	6898.44
487.253	6817.44
487.357	7047.44
487.461	7068.44
487.565	6900.44
487.669	6978.44
487.773	6953.44
487.877	7037.44
487.981	7027.44
488.085	6974.44
488.189	6827.44
488.293	7113.44
488.397	7511.44
488.501	6951.44
488.605	6890.44
488.709	6960.44
488.813	6886.44
488.917	6957.44
489.021	6997.44
489.125	7202.44
489.229	6899.44
489.333	7260.44
489.437	7074.44
489.541	7152.44
489.645	6962.44
489.749	7219.44
489.853	7147.44
489.956	7065.44
490.06	7215.44
490.164	7027.44
490.268	7070.44
490.372	7186.44
490.476	6999.44
490.579	7133.44
490.683	7590.44
490.787	7212.44
490.891	7048.44
490.995	7218.44
491.098	7139.44
491.202	7058.44
491.306	7255.44
491.41	7153.44
491.513	6983.44
491.617	7194.44
491.721	7396.44
491.824	7401.44
491.928	7208.44
492.032	7391.44
492.136	7190.44
492.239	7158.44
492.343	7195.44
492.446	7606.44
492.55	7185.44
492.654	7059.44
492.757	7229.44
492.861	7126.44
492.965	7160.44
493.068	7326.44
493.172	7197.44
493.275	7207.44
493.379	7263.44
493.482	7268.44
493.586	7392.44
493.689	7402.44
493.793	7280.44
493.896	7296.44
494	7307.44
494.103	7332.44
494.207	7398.44
494.31	7520.44
494.414	7276.44
494.517	7169.44
494.621	7069.44
494.724	7188.44
494.828	7230.44
494.931	7064.44
495.034	7163.44
495.138	7248.44
495.241	7003.44
495.345	7842.44
495.448	7271.44
495.551	7006.44
495.655	7008.44
495.758	7146.44
495.861	7059.44
495.965	7070.44
496.068	7256.44
496.171	7232.44
496.274	7103.44
496.378	7175.44
496.481	7239.44
496.584	7289.44
496.687	7225.44
496.791	7250.44
496.894	7229.44
496.997	7277.44
497.1	7291.44
497.204	7326.44
497.307	7361.44
497.41	7595.44
497.513	7706.44
497.616	7529.44
497.719	7598.44
497.823	7761.44
497.926	7748.44
498.029	7887.44
498.132	8004.44
498.235	8076.44
498.338	8242.44
498.441	8490.44
498.544	8480.44
498.647	8636.44
498.75	8952.44
498.853	9041.44
498.956	9174.44
499.059	9627.44
499.163	9548.44
499.266	9854.44
499.369	10091.44
499.471	10485.44
499.574	10739.44
499.677	10813.44
499.78	11416.44
499.883	11477.44
499.986	11994.44
500.089	12188.44
500.192	12361.44
500.295	12360.44
500.398	12394.44
500.501	12312.44
500.604	12098.44
500.707	11757.44
500.809	11615.44
500.912	11163.44
501.015	10954.44
501.118	10431.44
501.221	10140.44
501.324	9819.44
501.426	9493.44
501.529	9155.44
501.632	8926.44
501.735	8728.44
501.837	8325.44
501.94	8185.44
502.043	8287.44
502.146	8019.44
502.248	7790.44
502.351	7601.44
502.454	7567.44
502.557	7342.44
502.659	7293.44
502.762	7013.44
502.865	6889.44
502.967	6776.44
503.07	6746.44
503.173	6762.44
503.275	6558.44
503.378	6590.44
503.48	6544.44
503.583	6491.44
503.686	6399.44
503.788	6729.44
503.891	6299.44
503.993	6447.44
504.096	6303.44
504.198	6287.44
504.301	6138.44
504.403	6234.44
504.506	6096.44
504.608	6049.44
504.711	6078.44
504.813	6028.44
504.916	5747.44
505.018	5724.44
505.121	5639.44
505.223	5566.44
505.326	5561.44
505.428	5653.44
505.531	5375.44
505.633	5397.44
505.735	5295.44
505.838	5192.44
505.94	5278.44
506.042	5267.44
506.145	5246.44
506.247	5253.44
506.35	5102.44
506.452	5226.44
506.554	5178.44
506.656	5096.44
506.759	5045.44
506.861	5020.44
506.963	4919.44
507.066	5090.44
507.168	5157.44
507.27	4843.44
507.372	4779.44
507.475	4906.44
507.577	4915.44
507.679	4874.44
507.781	4749.44
507.883	4810.44
507.986	4771.44
508.088	4790.44
508.19	4867.44
508.292	4769.44
508.394	4741.44
508.496	4607.44
508.598	4700.44
508.701	4705.44
508.803	4702.44
508.905	4572.44
509.007	4724.44
509.109	4736.44
509.211	4717.44
509.313	4575.44
509.415	4758.44
509.517	4550.44
509.619	4510.44
509.721	4717.44
509.823	4558.44
509.925	4723.44
510.027	4508.44
510.129	4651.44
510.231	4606.44
510.333	4483.44
510.435	4493.44
510.537	4612.44
510.639	4640.44
510.741	4556.44
510.843	4499.44
510.945	4475.44
511.047	4680.44
511.148	4629.44
511.25	4553.44
511.352	4490.44
511.454	4402.44
511.556	4551.44
511.658	4466.44
511.76	4606.44
511.861	4654.44
511.963	4495.44
512.065	4551.44
512.167	4516.44
512.268	4713.44
512.37	4622.44
512.472	4514.44
512.574	4564.44
512.676	4608.44
512.777	4495.44
512.879	4522.44
512.981	4577.44
513.082	4608.44
513.184	4618.44
513.286	5064.44
513.387	4762.44
513.489	4771.44
513.591	4637.44
513.692	4770.44
513.794	4680.44
513.896	4550.44
513.997	4656.44
514.099	4663.44
514.2	4779.44
514.302	4731.44
514.404	4755.44
514.505	4697.44
514.607	4772.44
514.708	4822.44
514.81	4827.44
514.911	4837.44
515.013	4968.44
515.114	4903.44
515.216	4821.44
515.317	4992.44
515.419	4951.44
515.52	5050.44
515.622	4975.44
515.723	5075.44
515.825	5241.44
515.926	5084.44
516.027	5219.44
516.129	5222.44
516.23	5285.44
516.332	5327.44
516.433	5331.44
516.534	5431.44
516.636	5493.44
516.737	5542.44
516.838	6589.44
516.94	5639.44
517.041	5770.44
517.142	5901.44
517.244	5933.44
517.345	5981.44
517.446	5957.44
517.547	6151.44
517.649	6068.44
517.75	6076.44
517.851	6001.44
517.952	6304.44
518.054	6002.44
518.155	6103.44
518.256	5878.44
518.357	6045.44
518.458	5726.44
518.56	5682.44
518.661	5745.44
518.762	5639.44
518.863	5733.44
518.964	5733.44
519.065	5463.44
519.166	5505.44
519.268	5529.44
519.369	5722.44
519.47	5447.44
519.571	5511.44
519.672	5427.44
519.773	5364.44
519.874	5371.44
519.975	5478.44
520.076	5389.44
520.177	5487.44
520.278	5415.44
520.379	5448.44
520.48	5288.44
520.581	5240.44
520.682	5166.44
520.783	5210.44
520.884	5236.44
520.985	5300.44
521.086	5263.44
521.187	5208.44
521.288	5197.44
521.389	5252.44
521.489	5150.44
521.59	5151.44
521.691	5185.44
521.792	5171.44
521.893	5412.44
521.994	5249.44
522.095	5213.44
522.195	5313.44
522.296	5419.44
522.397	5333.44
522.498	5240.44
522.599	5223.44
522.699	5180.44
522.8	5193.44
522.901	5352.44
523.002	5234.44
523.102	5363.44
523.203	5292.44
523.304	5477.44
523.405	5231.44
523.505	5234.44
523.606	5299.44
523.707	5257.44
523.807	5319.44
523.908	5429.44
524.009	5392.44
524.109	5256.44
524.21	5371.44
524.31	5294.44
524.411	5417.44
524.512	5484.44
524.612	5263.44
524.713	5391.44
524.813	5386.44
524.914	5528.44
525.014	10629.44
525.115	5603.44
525.216	5325.44
525.316	5359.44
525.417	5357.44
525.517	5341.44
525.618	5282.44
525.718	5272.44
525.819	5297.44
525.919	5223.44
526.019	5208.44
526.12	5366.44
526.22	5171.44
526.321	5116.44
526.421	5100.44
526.522	5227.44
526.622	5101.44
526.722	5128.44
526.823	5206.44
526.923	5126.44
527.023	5207.44
527.124	5163.44
527.224	5198.44
527.324	5045.44
527.425	5171.44
527.525	5134.44
527.625	5217.44
527.726	5177.44
527.826	5312.44
527.926	5221.44
528.026	5276.44
528.127	5183.44
528.227	5282.44
528.327	5247.44
528.427	5259.44
528.528	5195.44
528.628	5226.44
528.728	5213.44
528.828	5290.44
528.928	5256.44
529.029	5172.44
529.129	5398.44
529.229	5239.44
529.329	5135.44
529.429	5339.44
529.529	5224.44
529.629	5112.44
529.729	5257.44
529.829	5268.44
529.93	5086.44
530.03	5234.44
530.13	5022.44
530.23	4969.44
530.33	5057.44
530.43	5037.44
530.53	4945.44
530.63	5038.44
530.73	4985.44
530.83	4834.44
530.93	4921.44
531.03	4890.44
531.13	4949.44
531.23	4833.44
531.33	4985.44
531.429	5030.44
531.529	4905.44
531.629	4999.44
531.729	4866.44
531.829	4832.44
531.929	4908.44
532.029	4895.44
532.129	4822.44
532.229	4879.44
532.328	4917.44
532.428	4719.44
532.528	4792.44
532.628	4774.44
532.728	4763.44
532.827	4691.44
532.927	4823.44
533.027	4758.44
533.127	4994.44
533.227	4927.44
533.326	4900.44
533.426	4751.44
533.526	4845.44
533.625	4932.44
533.725	4998.44
533.825	4706.44
533.924	4642.44
534.024	4485.44
534.124	4588.44
534.223	4570.44
534.323	4929.44
534.423	4519.44
534.522	4610.44
534.622	4451.44
534.722	4424.44
534.821	4505.44
534.921	4522.44
535.02	4370.44
535.12	4475.44
535.219	4585.44
535.319	4533.44
535.419	4584.44
535.518	4421.44
535.618	4448.44
535.717	4487.44
535.817	4325.44
535.916	4201.44
536.016	4262.44
536.115	4236.44
536.215	4155.44
536.314	4169.44
536.413	4085.44
536.513	4207.44
536.612	4174.44
536.712	4038.44
536.811	4063.44
536.91	4011.44
537.01	3900.44
537.109	4142.44
537.209	4126.44
537.308	3972.44
537.407	4023.44
537.507	4030.44
537.606	3999.44
537.705	4042.44
537.805	4075.44
537.904	3934.44
538.003	3979.44
538.102	4095.44
538.202	4057.44
538.301	4053.44
538.4	4065.44
538.499	4008.44
538.599	4036.44
538.698	4260.44
538.797	4063.44
538.896	4052.44
538.995	3965.44
539.095	4057.44
539.194	4129.44
539.293	3859.44
539.392	3880.44
539.491	3909.44
539.59	3794.44
539.689	3950.44
539.789	3946.44
539.888	3726.44
539.987	3603.44
540.086	3795.44
540.185	3777.44
540.284	3879.44
540.383	3840.44
540.482	3786.44
540.581	3830.44
540.68	3759.44
540.779	3848.44
540.878	3810.44
540.977	3990.44
541.076	3782.44
541.175	3871.44
541.274	4011.44
541.373	3895.44
541.472	3753.44
541.571	3803.44
541.67	5023.44
541.769	3854.44
541.868	3774.44
541.966	3864.44
542.065	3775.44
542.164	3700.44
542.263	3732.44
542.362	3722.44
542.461	3713.44
542.56	3735.44
542.658	3715.44
542.757	3558.44
542.856	3515.44
542.955	3618.44
543.054	3540.44
543.152	3752.44
543.251	3663.44
543.35	3753.44
543.449	3673.44
543.547	3668.44
543.646	3679.44
543.745	3701.44
543.843	3731.44
543.942	3806.44
544.041	3703.44
544.14	3723.44
544.238	3806.44
544.337	3837.44
544.436	3736.44
544.534	3891.44
544.633	3713.44
544.731	3703.44
544.83	3784.44
544.929	3677.44
545.027	3651.44
545.126	3643.44
545.224	3852.44
545.323	3640.44
545.421	3705.44
545.52	3794.44
545.619	3725.44
545.717	3683.44
545.816	3837.44
545.914	3748.44
546.013	3859.44
546.111	3858.44
546.209	3704.44
546.308	3565.44
546.406	3644.44
546.505	3848.44
546.603	3683.44
546.702	3696.44
546.8	3748.44
546.899	3595.44
546.997	3707.44
547.095	3722.44
547.194	3765.44
547.292	3676.44
547.39	3811.44
547.489	3772.44
547.587	3878.44
547.685	3655.44
547.784	3930.44
547.882	3658.44
547.98	3576.44
548.079	3794.44
548.177	3643.44
548.275	3639.44
548.373	3797.44
548.472	3645.44
548.57	3666.44
548.668	3732.44
548.766	3612.44
548.864	3777.44
548.963	3637.44
549.061	3832.44
549.159	3639.44
549.257	3715.44
549.355	3648.44
549.454	3548.44
549.552	3743.44
549.65	3770.44
549.748	3623.44
549.846	3611.44
549.944	3678.44
550.042	3645.44
550.14	3636.44
550.238	3663.44
550.336	3627.44
550.434	3523.44
550.532	3653.44
550.631	3725.44
550.729	3599.44
550.827	3554.44
550.925	3581.44
551.023	3523.44
551.121	3520.44
551.218	3537.44
551.316	3498.44
551.414	3434.44
551.512	3451.44
551.61	3565.44
551.708	3566.44
551.806	3534.44
551.904	3607.44
552.002	3586.44
552.1	3583.44
552.198	3660.44
552.296	3717.44
552.393	3794.44
552.491	3966.44
552.589	3858.44
552.687	3910.44
552.785	3805.44
552.882	4018.44
552.98	4069.44
553.078	3996.44
553.176	3925.44
553.274	3735.44
553.371	3830.44
553.469	3800.44
553.567	3811.44
553.665	3790.44
553.762	4189.44
553.86	3787.44
553.958	3777.44
554.055	3736.44
554.153	3802.44
554.251	3716.44
554.348	3669.44
554.446	3641.44
554.544	3639.44
554.641	3888.44
554.739	3562.44
554.837	3588.44
554.934	3548.44
555.032	3567.44
555.129	3459.44
555.227	3840.44
555.324	7005.44
555.422	3739.44
555.519	3479.44
555.617	3428.44
555.715	3376.44
555.812	3775.44
555.91	3351.44
556.007	3482.44
556.105	3404.44
556.202	3438.44
556.299	3356.44
556.397	3416.44
556.494	3338.44
556.592	3363.44
556.689	3434.44
556.787	3374.44
556.884	3293.44
556.981	3421.44
557.079	3293.44
557.176	3464.44
557.273	3448.44
557.371	3443.44
557.468	3341.44
557.566	3396.44
557.663	3323.44
557.76	3394.44
557.857	3320.44
557.955	3367.44
558.052	3436.44
558.149	3439.44
558.247	3632.44
558.344	3326.44
558.441	3271.44
558.538	3405.44
558.636	3331.44
558.733	3442.44
558.83	3389.44
558.927	3376.44
559.024	3245.44
559.122	3298.44
559.219	3292.44
559.316	3391.44
559.413	3471.44
559.51	3389.44
559.607	3358.44
559.704	3423.44
559.801	3527.44
559.899	3385.44
559.996	3617.44
560.093	3474.44
560.19	3265.44
560.287	3496.44
560.384	3611.44
560.481	3388.44
560.578	3300.44
560.675	3386.44
560.772	3487.44
560.869	3430.44
560.966	3565.44
561.063	3395.44
561.16	3445.44
561.257	3417.44
561.354	3430.44
561.451	3403.44
561.548	3415.44
561.645	3627.44
561.742	3336.44
561.838	3326.44
561.935	3459.44
562.032	3455.44
562.129	3372.44
562.226	3469.44
562.323	3422.44
562.42	3467.44
562.516	3506.44
562.613	3529.44
562.71	3450.44
562.807	4182.44
562.904	3524.44
563	3548.44
563.097	3418.44
563.194	3537.44
563.291	3467.44
563.387	3526.44
563.484	3569.44
563.581	3547.44
563.678	3505.44
563.774	3899.44
563.871	3692.44
563.968	3580.44
564.064	3677.44
564.161	3535.44
564.258	3672.44
564.354	3702.44
564.451	3768.44
564.548	3744.44
564.644	3723.44
564.741	3710.44
564.837	3795.44
564.934	3801.44
565.031	3827.44
565.127	3939.44
565.224	3898.44
565.32	4081.44
565.417	4021.44
565.513	4101.44
565.61	4087.44
565.706	4221.44
565.803	4207.44
565.899	4215.44
565.996	4353.44
566.092	4454.44
566.189	4470.44
566.285	4603.44
566.382	4619.44
566.478	4805.44
566.574	4784.44
566.671	4805.44
566.767	4835.44
566.864	4777.44
566.96	4868.44
567.056	4870.44
567.153	5109.44
567.249	5091.44
567.345	5168.44
567.442	5183.44
567.538	5126.44
567.634	5224.44
567.731	5033.44
567.827	5085.44
567.923	5085.44
568.019	4830.44
568.116	4634.44
568.212	4684.44
568.308	4683.44
568.404	4424.44
568.501	4370.44
568.597	4364.44
568.693	4120.44
568.789	4655.44
568.885	4039.44
568.982	3908.44
569.078	3852.44
569.174	3971.44
569.27	3699.44
569.366	3750.44
569.462	3703.44
569.558	3604.44
569.655	3528.44
569.751	3532.44
569.847	3494.44
569.943	3518.44
570.039	3400.44
570.135	3983.44
570.231	3510.44
570.327	3628.44
570.423	3580.44
570.519	3478.44
570.615	3508.44
570.711	3463.44
570.807	3454.44
570.903	3437.44
570.999	3468.44
571.095	3463.44
571.191	3347.44
571.287	3318.44
571.383	3401.44
571.479	3266.44
571.574	3253.44
571.67	3261.44
571.766	3371.44
571.862	3167.44
571.958	3191.44
572.054	3232.44
572.15	2996.44
572.246	2992.44
572.341	3191.44
572.437	3030.44
572.533	3052.44
572.629	3067.44
572.725	2902.44
572.82	2857.44
572.916	3045.44
573.012	2889.44
573.108	2967.44
573.203	2875.44
573.299	2807.44
573.395	2754.44
573.49	2742.44
573.586	2801.44
573.682	2756.44
573.778	2918.44
573.873	2791.44
573.969	2737.44
574.065	2760.44
574.16	2760.44
574.256	2764.44
574.351	2826.44
574.447	2755.44
574.543	2692.44
574.638	2763.44
574.734	2771.44
574.829	2937.44
574.925	2685.44
575.02	2627.44
575.116	2746.44
575.212	2697.44
575.307	2823.44
575.403	2664.44
575.498	2665.44
575.594	2657.44
575.689	2703.44
575.784	2621.44
575.88	2566.44
575.975	2562.44
576.071	2586.44
576.166	2494.44
576.262	2643.44
576.357	2569.44
576.452	2646.44
576.548	2531.44
576.643	2575.44
576.739	2533.44
576.834	2529.44
576.929	2474.44
577.025	3127.44
577.12	2421.44
577.215	2386.44
577.311	2447.44
577.406	2469.44
577.501	2520.44
577.597	2383.44
577.692	2460.44
577.787	2423.44
577.882	2463.44
577.978	2328.44
578.073	2307.44
578.168	2353.44
578.263	2298.44
578.358	2294.44
578.454	2286.44
578.549	2206.44
578.644	2173.44
578.739	2286.44
578.834	2306.44
578.929	2167.44
579.025	2223.44
579.12	2306.44
579.215	2363.44
579.31	2301.44
579.405	2190.44
579.5	2207.44
579.595	2152.44
579.69	2130.44
579.785	2141.44
579.88	2114.44
579.975	2185.44
580.07	2139.44
580.165	2152.44
580.26	2282.44
580.355	2157.44
580.45	2094.44
580.545	2019.44
580.64	2148.44
580.735	2162.44
580.83	2086.44
580.925	2072.44
581.02	2037.44
581.115	1932.44
581.21	2014.44
581.305	2082.44
581.4	2026.44
581.495	2049.44
581.589	2034.44
581.684	1910.44
581.779	2043.44
581.874	2007.44
581.969	1998.44
582.064	1927.44
582.158	2056.44
582.253	1997.44
582.348	1954.44
582.443	1972.44
582.537	1990.44
582.632	2116.44
582.727	1955.44
582.822	1927.44
582.916	1834.44
583.011	1877.44
583.106	2022.44
583.201	1853.44
583.295	1920.44
583.39	1920.44
583.485	1827.44
583.579	3693.44
583.674	2010.44
583.769	2147.44
583.863	1831.44
583.958	1832.44
584.052	1817.44
584.147	1762.44
584.242	1737.44
584.336	1850.44
584.431	1950.44
584.525	1764.44
584.62	2027.44
584.714	1835.44
584.809	1814.44
584.903	1871.44
584.998	1855.44
585.092	1671.44
585.187	1778.44
585.281	1757.44
585.376	1780.44
585.47	1762.44
585.565	1827.44
585.659	1652.44
585.754	1748.44
585.848	1853.44
585.942	1653.44
586.037	1651.44
586.131	3878.44
586.226	1839.44
586.32	1716.44
586.414	1572.44
586.509	1810.44
586.603	1753.44
586.697	1667.44
586.792	1706.44
586.886	1563.44
586.98	1704.44
587.075	1671.44
587.169	1662.44
587.263	1789.44
587.357	1667.44
587.452	1603.44
587.546	1685.44
587.64	1560.44
587.734	1659.44
587.829	1641.44
587.923	1551.44
588.017	1639.44
588.111	1545.44
588.205	1641.44
588.3	1659.44
588.394	1582.44
588.488	1577.44
588.582	1704.44
588.676	1691.44
588.77	1899.44
588.864	2677.44
588.958	2739.44
589.052	2354.44
589.147	1983.44
589.241	1877.44
589.335	1736.44
589.429	2125.44
589.523	2378.44
589.617	2220.44
589.711	1951.44
589.805	1798.44
589.899	1783.44
589.993	1576.44
590.087	1563.44
590.181	1587.44
590.275	1603.44
590.369	1608.44
590.462	1477.44
590.556	1507.44
590.65	1489.44
590.744	1548.44
590.838	1524.44
590.932	1490.44
591.026	1599.44
591.12	1647.44
591.214	1526.44
591.307	1570.44
591.401	1603.44
591.495	1633.44
591.589	1549.44
591.683	1631.44
591.777	1586.44
591.87	1964.44
591.964	1667.44
592.058	1544.44
592.152	1604.44
592.245	1655.44
592.339	1649.44
592.433	1720.44
592.527	1638.44
592.62	1603.44
592.714	1629.44
592.808	1669.44
592.901	1679.44
592.995	1593.44
593.089	1909.44
593.182	1806.44
593.276	1642.44
593.37	1610.44
593.463	1657.44
593.557	1682.44
593.65	1602.44
593.744	1626.44
593.837	1769.44
593.931	1636.44
594.025	5077.44
594.118	2006.44
594.212	1623.44
594.305	1644.44
594.399	1707.44
594.492	1898.44
594.586	1560.44
594.679	1611.44
594.773	1548.44
594.866	1592.44
594.96	1591.44
595.053	1511.44
595.146	1474.44
595.24	1510.44
595.333	1509.44
595.427	1325.44
595.52	1390.44
595.614	1590.44
595.707	1409.44
595.8	1434.44
595.894	1482.44
595.987	1325.44
596.08	1360.44
596.174	1732.44
596.267	1491.44
596.36	1429.44
596.454	1523.44
596.547	1475.44
596.64	1320.44
596.733	1325.44
596.827	1448.44
596.92	1288.44
597.013	1232.44
597.106	1294.44
597.2	1250.44
597.293	1222.44
597.386	1427.44
597.479	1327.44
597.572	1224.44
597.666	1219.44
597.759	1276.44
597.852	1302.44
597.945	1193.44
598.038	1247.44
598.131	1138.44
598.224	1230.44
598.317	1373.44
598.411	1316.44
598.504	1174.44
598.597	1263.44
598.69	1178.44
598.783	1180.44
598.876	1235.44
598.969	1267.44
599.062	1174.44
599.155	1262.44
599.248	1220.44
599.341	1232.44
599.434	1179.44
599.527	1319.44
599.62	1157.44
599.713	1119.44
599.806	1247.44
599.899	1338.44
599.991	1106.44
600.084	1449.44
600.177	1231.44
600.27	1144.44
600.363	1312.44
600.456	1180.44
600.549	1209.44
600.642	1125.44
600.734	1209.44
600.827	1160.44
600.92	1264.44
601.013	1221.44
601.106	1240.44
601.199	1103.44
601.291	1198.44
601.384	1211.44
601.477	1336.44
601.57	1261.44
601.662	1220.44
601.755	1156.44
601.848	1212.44
601.94	1193.44
602.033	1258.44
602.126	1211.44
602.219	1208.44
602.311	1258.44
602.404	1127.44
602.497	1135.44
602.589	1167.44
602.682	1174.44
602.774	1147.44
602.867	1239.44
602.96	1114.44
603.052	1147.44
603.145	1166.44
603.237	1136.44
603.33	1114.44
603.422	1315.44
603.515	1133.44
603.608	1148.44
603.7	1137.44
603.793	1078.44
603.885	1069.44
603.978	1079.44
604.07	1126.44
604.163	1078.44
604.255	1102.44
604.347	1133.44
604.44	1039.44
604.532	1098.44
604.625	1144.44
604.717	1044.44
604.81	1118.44
604.902	1170.44
604.994	1052.44
605.087	1109.44
605.179	1093.44
605.271	1140.44
605.364	1124.44
605.456	1146.44
605.548	1168.44
605.641	1129.44
605.733	1089.44
605.825	1161.44
605.918	995.44
606.01	1294.44
606.102	1550.44
606.194	1111.44
606.287	1227.44
606.379	1066.44
606.471	1125.44
606.563	1158.44
606.655	1157.44
606.748	1218.44
606.84	1104.44
606.932	1194.44
607.024	1082.44
607.116	1039.44
607.208	1070.44
607.301	1168.44
607.393	1054.44
607.485	1119.44
607.577	1161.44
607.669	1166.44
607.761	1146.44
607.853	1361.44
607.945	1074.44
608.037	1020.44
608.129	1063.44
608.221	1078.44
608.313	1003.44
608.405	1071.44
608.497	1101.44
608.589	1044.44
608.681	1042.44
608.773	1167.44
608.865	1065.44
608.957	1075.44
609.049	1036.44
609.141	1147.44
609.233	1038.44
609.325	972.44
609.417	1046.44
609.509	1080.44
609.601	1160.44
609.693	1183.44
609.784	1042.44
609.876	1067.44
609.968	1107.44
610.06	3059.44
610.152	1273.44
610.244	1803.44
610.335	1149.44
610.427	1030.44
610.519	1039.44
610.611	1071.44
610.702	1012.44
610.794	1027.44
610.886	1134.44
610.978	985.44
611.069	1409.44
611.161	1071.44
611.253	1063.44
611.344	952.44
611.436	924.44
611.528	1040.44
611.62	874.44
611.711	938.44
611.803	946.44
611.894	889.44
611.986	877.44
612.078	960.44
612.169	841.44
612.261	877.44
612.352	853.44
612.444	807.44
612.536	900.44
612.627	818.44
612.719	763.44
612.81	705.44
612.902	733.44
612.993	779.44
613.085	713.44
613.176	690.44
613.268	792.44
613.359	678.44
613.451	710.44
613.542	774.44
613.634	673.44
613.725	695.44
613.816	752.44
613.908	661.44
613.999	636.44
614.091	565.44
614.182	567.44
614.273	590.44
614.365	539.44
614.456	555.44
614.547	519.44
614.639	477.44
614.73	570.44
614.821	611.44
614.913	450.44
615.004	424.44
615.095	444.44
615.187	362.44
