Data from 7g_HRC06701__2__124.txt Node

Date: Thu Apr 18 01:49:51 CDT 2024
User: Estudiantes 2
Spectrometer: HR+C0670
Trigger mode: 4
Integration Time (sec): 1.000000E0
Scans to average: 1
Electric dark correction enabled: true
Nonlinearity correction enabled: false
Boxcar width: 0
XAxis mode: Wavelengths
Number of Pixels in Spectrum: 2048
>>>>>Begin Spectral Data<<<<<
407.81	-138.81
407.921	-138.81
408.032	-138.81
408.143	-71.81
408.254	-140.81
408.365	4.19
408.476	260.19
408.587	-22.81
408.699	-16.81
408.81	-41.81
408.921	-19.81
409.032	-37.81
409.143	47.19
409.254	51.19
409.365	60.19
409.476	-57.81
409.587	55.19
409.698	70.19
409.809	56.19
409.92	-28.81
410.031	-18.81
410.142	32.19
410.253	15.19
410.364	48.19
410.475	1651.19
410.585	7856.19
410.696	8353.19
410.807	8156.19
410.918	8180.19
411.029	8330.19
411.14	8346.19
411.251	8435.19
411.362	8451.19
411.472	8602.19
411.583	8384.19
411.694	8653.19
411.805	8546.19
411.916	8600.19
412.026	8515.19
412.137	8634.19
412.248	8422.19
412.359	8473.19
412.47	8522.19
412.58	8230.19
412.691	8469.19
412.802	8446.19
412.912	8273.19
413.023	8262.19
413.134	8292.19
413.245	8321.19
413.355	8438.19
413.466	8256.19
413.577	8379.19
413.687	8507.19
413.798	8189.19
413.909	8486.19
414.019	8435.19
414.13	8488.19
414.24	8461.19
414.351	8419.19
414.462	8692.19
414.572	8515.19
414.683	8493.19
414.793	8513.19
414.904	8751.19
415.014	8492.19
415.125	8284.19
415.235	8441.19
415.346	8629.19
415.456	8430.19
415.567	8325.19
415.677	8296.19
415.788	8358.19
415.898	8253.19
416.009	8275.19
416.119	8314.19
416.23	8290.19
416.34	8323.19
416.45	8312.19
416.561	8913.19
416.671	8339.19
416.782	8406.19
416.892	8515.19
417.002	8556.19
417.113	8685.19
417.223	8509.19
417.333	8397.19
417.444	8519.19
417.554	8697.19
417.664	8844.19
417.775	8606.19
417.885	8926.19
417.995	8665.19
418.106	9082.19
418.216	8966.19
418.326	9202.19
418.436	9217.19
418.547	9365.19
418.657	9214.19
418.767	9501.19
418.877	9465.19
418.987	9549.19
419.098	9503.19
419.208	9472.19
419.318	9589.19
419.428	9606.19
419.538	9366.19
419.648	9680.19
419.759	9506.19
419.869	9512.19
419.979	9646.19
420.089	9498.19
420.199	9424.19
420.309	9563.19
420.419	9610.19
420.529	9716.19
420.639	9853.19
420.749	9691.19
420.859	9835.19
420.969	9956.19
421.079	10056.19
421.189	9714.19
421.299	9807.19
421.409	9814.19
421.519	10002.19
421.629	10091.19
421.739	10028.19
421.849	10054.19
421.959	10256.19
422.069	10181.19
422.179	10239.19
422.289	10245.19
422.399	10517.19
422.509	10579.19
422.619	13344.19
422.729	10987.19
422.838	10764.19
422.948	10792.19
423.058	10844.19
423.168	10968.19
423.278	11016.19
423.388	11347.19
423.498	11474.19
423.607	11341.19
423.717	11707.19
423.827	11570.19
423.937	11673.19
424.046	11674.19
424.156	11701.19
424.266	11537.19
424.376	12050.19
424.485	11984.19
424.595	11958.19
424.705	11923.19
424.815	11997.19
424.924	12605.19
425.034	12098.19
425.144	12097.19
425.253	12097.19
425.363	12510.19
425.473	12377.19
425.582	12045.19
425.692	12371.19
425.801	12178.19
425.911	12511.19
426.021	12458.19
426.13	12765.19
426.24	12759.19
426.349	12825.19
426.459	12859.19
426.568	12842.19
426.678	12997.19
426.787	13149.19
426.897	12957.19
427.006	12988.19
427.116	13212.19
427.225	13141.19
427.335	13511.19
427.444	13380.19
427.554	13327.19
427.663	13496.19
427.773	13560.19
427.882	13638.19
427.992	13581.19
428.101	13772.19
428.21	13789.19
428.32	14013.19
428.429	13798.19
428.539	14326.19
428.648	14062.19
428.757	14092.19
428.867	14412.19
428.976	14471.19
429.085	14335.19
429.195	14485.19
429.304	14417.19
429.413	14536.19
429.523	14536.19
429.632	14536.19
429.741	14536.19
429.85	14510.19
429.96	14536.19
430.069	14536.19
430.178	14536.19
430.287	14536.19
430.397	14536.19
430.506	14536.19
430.615	14536.19
430.724	14536.19
430.833	14536.19
430.943	14536.19
431.052	14536.19
431.161	14536.19
431.27	14536.19
431.379	14536.19
431.488	14536.19
431.597	14536.19
431.706	14536.19
431.816	14536.19
431.925	14536.19
432.034	14536.19
432.143	14536.19
432.252	14536.19
432.361	14536.19
432.47	14536.19
432.579	14536.19
432.688	14536.19
432.797	14536.19
432.906	14536.19
433.015	14536.19
433.124	14536.19
433.233	14536.19
433.342	14536.19
433.451	14536.19
433.56	14536.19
433.669	14536.19
433.778	14536.19
433.886	14536.19
433.995	14536.19
434.104	14536.19
434.213	14536.19
434.322	14536.19
434.431	14536.19
434.54	14536.19
434.649	14536.19
434.757	14536.19
434.866	14536.19
434.975	14536.19
435.084	14536.19
435.193	14536.19
435.301	14536.19
435.41	14536.19
435.519	14536.19
435.628	14536.19
435.737	14536.19
435.845	14536.19
435.954	14536.19
436.063	14536.19
436.171	14536.19
436.28	14536.19
436.389	14536.19
436.498	14536.19
436.606	14536.19
436.715	14536.19
436.823	14536.19
436.932	14536.19
437.041	14536.19
437.149	14536.19
437.258	14529.19
437.367	14217.19
437.475	14252.19
437.584	14496.19
437.692	14306.19
437.801	14536.19
437.91	14162.19
438.018	14151.19
438.127	14068.19
438.235	13986.19
438.344	14107.19
438.452	14046.19
438.561	13936.19
438.669	14001.19
438.778	13829.19
438.886	13785.19
438.995	13829.19
439.103	14065.19
439.212	13854.19
439.32	13897.19
439.428	14001.19
439.537	13990.19
439.645	14044.19
439.754	14061.19
439.862	13643.19
439.97	13864.19
440.079	14085.19
440.187	14017.19
440.295	14238.19
440.404	14229.19
440.512	14158.19
440.62	14501.19
440.729	14390.19
440.837	14536.19
440.945	14536.19
441.054	14536.19
441.162	14536.19
441.27	14536.19
441.378	14536.19
441.487	14536.19
441.595	14536.19
441.703	14536.19
441.811	14536.19
441.92	14536.19
442.028	14536.19
442.136	14536.19
442.244	14536.19
442.352	14536.19
442.461	14518.19
442.569	14536.19
442.677	14536.19
442.785	14536.19
442.893	14536.19
443.001	14536.19
443.109	14536.19
443.217	14536.19
443.325	14536.19
443.434	14536.19
443.542	14536.19
443.65	14536.19
443.758	14536.19
443.866	14536.19
443.974	14536.19
444.082	14536.19
444.19	14536.19
444.298	14536.19
444.406	14536.19
444.514	14536.19
444.622	14536.19
444.73	14536.19
444.838	14536.19
444.946	14536.19
445.054	14536.19
445.161	14536.19
445.269	14536.19
445.377	14536.19
445.485	14536.19
445.593	14536.19
445.701	14536.19
445.809	14536.19
445.917	14536.19
446.025	14536.19
446.132	14536.19
446.24	14536.19
446.348	14536.19
446.456	14536.19
446.564	14536.19
446.671	14536.19
446.779	14536.19
446.887	14536.19
446.995	14536.19
447.102	14536.19
447.21	14536.19
447.318	14506.19
447.426	14524.19
447.533	14536.19
447.641	14536.19
447.749	14524.19
447.856	14536.19
447.964	14536.19
448.072	14536.19
448.179	14536.19
448.287	14536.19
448.395	14536.19
448.502	14536.19
448.61	14536.19
448.718	14536.19
448.825	14536.19
448.933	14536.19
449.04	14536.19
449.148	14536.19
449.256	14536.19
449.363	14536.19
449.471	14536.19
449.578	14536.19
449.686	14536.19
449.793	14536.19
449.901	14536.19
450.008	14536.19
450.116	14536.19
450.223	14536.19
450.331	14536.19
450.438	14536.19
450.546	14536.19
450.653	14536.19
450.76	14536.19
450.868	14536.19
450.975	14536.19
451.083	14536.19
451.19	14536.19
451.297	14536.19
451.405	14536.19
451.512	14536.19
451.619	14536.19
451.727	14536.19
451.834	14536.19
451.941	14536.19
452.049	14536.19
452.156	14536.19
452.263	14536.19
452.371	14536.19
452.478	14536.19
452.585	14536.19
452.692	14536.19
452.8	14536.19
452.907	14536.19
453.014	14536.19
453.121	14536.19
453.229	14536.19
453.336	14536.19
453.443	14536.19
453.55	14536.19
453.657	14536.19
453.765	14536.19
453.872	14536.19
453.979	14536.19
454.086	14536.19
454.193	14536.19
454.3	14536.19
454.407	14536.19
454.514	14536.19
454.621	14536.19
454.729	14536.19
454.836	14536.19
454.943	14536.19
455.05	14536.19
455.157	14536.19
455.264	14536.19
455.371	14536.19
455.478	14536.19
455.585	14536.19
455.692	14536.19
455.799	14536.19
455.906	14536.19
456.013	14536.19
456.12	14536.19
456.227	14536.19
456.334	14536.19
456.44	14536.19
456.547	14536.19
456.654	14536.19
456.761	14536.19
456.868	14536.19
456.975	14536.19
457.082	14536.19
457.189	14536.19
457.296	14536.19
457.402	14536.19
457.509	14536.19
457.616	14536.19
457.723	14536.19
457.83	14536.19
457.936	14536.19
458.043	14536.19
458.15	14536.19
458.257	14536.19
458.363	14536.19
458.47	14536.19
458.577	14536.19
458.684	14536.19
458.79	14536.19
458.897	14536.19
459.004	14536.19
459.11	14536.19
459.217	14536.19
459.324	14536.19
459.43	14536.19
459.537	14536.19
459.644	14536.19
459.75	14536.19
459.857	14536.19
459.964	14536.19
460.07	14536.19
460.177	14536.19
460.283	14536.19
460.39	14536.19
460.496	14536.19
460.603	14536.19
460.71	14536.19
460.816	14536.19
460.923	14536.19
461.029	14536.19
461.136	14536.19
461.242	14536.19
461.349	14536.19
461.455	14536.19
461.562	14536.19
461.668	14536.19
461.774	14536.19
461.881	14536.19
461.987	14536.19
462.094	14536.19
462.2	14536.19
462.307	14536.19
462.413	14536.19
462.519	14536.19
462.626	14536.19
462.732	14536.19
462.838	14536.19
462.945	14536.19
463.051	14536.19
463.157	14536.19
463.264	14536.19
463.37	14536.19
463.476	14536.19
463.583	14536.19
463.689	14536.19
463.795	14536.19
463.901	14536.19
464.008	14536.19
464.114	14536.19
464.22	14536.19
464.326	14536.19
464.433	14536.19
464.539	14536.19
464.645	14536.19
464.751	14536.19
464.857	14536.19
464.963	14536.19
465.07	14536.19
465.176	14536.19
465.282	14536.19
465.388	14536.19
465.494	14536.19
465.6	14536.19
465.706	14536.19
465.812	14536.19
465.918	14536.19
466.024	14536.19
466.131	14536.19
466.237	14536.19
466.343	14536.19
466.449	14536.19
466.555	14536.19
466.661	14536.19
466.767	14536.19
466.873	14536.19
466.979	14536.19
467.085	14536.19
467.191	14536.19
467.296	14536.19
467.402	14536.19
467.508	14536.19
467.614	14536.19
467.72	14536.19
467.826	14536.19
467.932	14536.19
468.038	14536.19
468.144	14536.19
468.25	14536.19
468.355	14536.19
468.461	14536.19
468.567	14536.19
468.673	14536.19
468.779	14536.19
468.885	14536.19
468.99	14536.19
469.096	14536.19
469.202	14536.19
469.308	14536.19
469.413	14536.19
469.519	14536.19
469.625	14536.19
469.731	14536.19
469.836	14536.19
469.942	14536.19
470.048	14536.19
470.153	14536.19
470.259	14536.19
470.365	14536.19
470.47	14536.19
470.576	14536.19
470.682	14536.19
470.787	14536.19
470.893	14536.19
470.999	14536.19
471.104	14536.19
471.21	14536.19
471.315	14536.19
471.421	14536.19
471.527	14536.19
471.632	14536.19
471.738	14536.19
471.843	14536.19
471.949	14536.19
472.054	14536.19
472.16	14536.19
472.265	14536.19
472.371	14536.19
472.476	14536.19
472.582	14536.19
472.687	14536.19
472.793	14536.19
472.898	14536.19
473.003	14536.19
473.109	14536.19
473.214	14536.19
473.32	14536.19
473.425	14536.19
473.53	14536.19
473.636	14536.19
473.741	14536.19
473.847	14536.19
473.952	14534.19
474.057	14536.19
474.163	14536.19
474.268	14536.19
474.373	14517.19
474.478	14500.19
474.584	14529.19
474.689	14478.19
474.794	14536.19
474.9	14536.19
475.005	14466.19
475.11	14536.19
475.215	14536.19
475.321	14536.19
475.426	14536.19
475.531	14536.19
475.636	14536.19
475.741	14536.19
475.846	14536.19
475.952	14536.19
476.057	14536.19
476.162	14536.19
476.267	14536.19
476.372	14536.19
476.477	14536.19
476.582	14536.19
476.687	14536.19
476.793	14536.19
476.898	14536.19
477.003	14536.19
477.108	14536.19
477.213	14536.19
477.318	14536.19
477.423	14536.19
477.528	14536.19
477.633	14536.19
477.738	14536.19
477.843	14536.19
477.948	14536.19
478.053	14536.19
478.158	14536.19
478.263	14536.19
478.368	14536.19
478.473	14536.19
478.578	14536.19
478.682	14536.19
478.787	14536.19
478.892	14536.19
478.997	14536.19
479.102	14536.19
479.207	14536.19
479.312	14536.19
479.417	14536.19
479.521	14536.19
479.626	14536.19
479.731	14536.19
479.836	14536.19
479.941	14536.19
480.045	14536.19
480.15	14536.19
480.255	14536.19
480.36	14536.19
480.465	14536.19
480.569	14536.19
480.674	14536.19
480.779	14536.19
480.883	14536.19
480.988	14536.19
481.093	14536.19
481.197	14536.19
481.302	14536.19
481.407	14536.19
481.511	14536.19
481.616	14536.19
481.721	14536.19
481.825	14536.19
481.93	14536.19
482.035	14536.19
482.139	14536.19
482.244	14536.19
482.348	14536.19
482.453	14536.19
482.557	14536.19
482.662	14536.19
482.767	14536.19
482.871	14536.19
482.976	14536.19
483.08	14536.19
483.185	14536.19
483.289	14536.19
483.394	14536.19
483.498	14536.19
483.603	14536.19
483.707	14536.19
483.811	14536.19
483.916	14536.19
484.02	14536.19
484.125	14536.19
484.229	14536.19
484.333	14536.19
484.438	14536.19
484.542	14536.19
484.647	14536.19
484.751	14536.19
484.855	14536.19
484.96	14536.19
485.064	14536.19
485.168	14536.19
485.273	14536.19
485.377	14536.19
485.481	14536.19
485.585	14536.19
485.69	14536.19
485.794	14536.19
485.898	14536.19
486.002	14536.19
486.107	14536.19
486.211	14536.19
486.315	14536.19
486.419	14536.19
486.524	14536.19
486.628	14536.19
486.732	14536.19
486.836	14536.19
486.94	14536.19
487.044	14536.19
487.148	14536.19
487.253	14536.19
487.357	14536.19
487.461	14536.19
487.565	14536.19
487.669	14536.19
487.773	14536.19
487.877	14536.19
487.981	14536.19
488.085	14536.19
488.189	14536.19
488.293	14536.19
488.397	14536.19
488.501	14536.19
488.605	14536.19
488.709	14536.19
488.813	14536.19
488.917	14536.19
489.021	14536.19
489.125	14536.19
489.229	14536.19
489.333	14536.19
489.437	14536.19
489.541	14536.19
489.645	14536.19
489.749	14536.19
489.853	14536.19
489.956	14536.19
490.06	14536.19
490.164	14536.19
490.268	14536.19
490.372	14536.19
490.476	14536.19
490.579	14536.19
490.683	14536.19
490.787	14536.19
490.891	14536.19
490.995	14536.19
491.098	14536.19
491.202	14536.19
491.306	14536.19
491.41	14536.19
491.513	14536.19
491.617	14536.19
491.721	14536.19
491.824	14536.19
491.928	14536.19
492.032	14536.19
492.136	14536.19
492.239	14536.19
492.343	14536.19
492.446	14536.19
492.55	14536.19
492.654	14536.19
492.757	14536.19
492.861	14536.19
492.965	14536.19
493.068	14536.19
493.172	14536.19
493.275	14536.19
493.379	14536.19
493.482	14536.19
493.586	14536.19
493.689	14536.19
493.793	14536.19
493.896	14536.19
494	14536.19
494.103	14536.19
494.207	14536.19
494.31	14536.19
494.414	14536.19
494.517	14536.19
494.621	14536.19
494.724	14536.19
494.828	14536.19
494.931	14536.19
495.034	14536.19
495.138	14536.19
495.241	14536.19
495.345	14536.19
495.448	14536.19
495.551	14536.19
495.655	14536.19
495.758	14536.19
495.861	14536.19
495.965	14536.19
496.068	14536.19
496.171	14536.19
496.274	14536.19
496.378	14536.19
496.481	14536.19
496.584	14536.19
496.687	14536.19
496.791	14536.19
496.894	14536.19
496.997	14536.19
497.1	14536.19
497.204	14536.19
497.307	14536.19
497.41	14536.19
497.513	14536.19
497.616	14536.19
497.719	14536.19
497.823	14536.19
497.926	14536.19
498.029	14536.19
498.132	14536.19
498.235	14536.19
498.338	14536.19
498.441	14536.19
498.544	14536.19
498.647	14536.19
498.75	14536.19
498.853	14536.19
498.956	14536.19
499.059	14536.19
499.163	14536.19
499.266	14536.19
499.369	14536.19
499.471	14536.19
499.574	14536.19
499.677	14536.19
499.78	14536.19
499.883	14536.19
499.986	14536.19
500.089	14536.19
500.192	14536.19
500.295	14536.19
500.398	14536.19
500.501	14536.19
500.604	14536.19
500.707	14536.19
500.809	14536.19
500.912	14536.19
501.015	14536.19
501.118	14536.19
501.221	14536.19
501.324	14536.19
501.426	14536.19
501.529	14536.19
501.632	14536.19
501.735	14536.19
501.837	14536.19
501.94	14536.19
502.043	14536.19
502.146	14536.19
502.248	14536.19
502.351	14536.19
502.454	14536.19
502.557	14536.19
502.659	14536.19
502.762	14536.19
502.865	14536.19
502.967	14536.19
503.07	14536.19
503.173	14536.19
503.275	14536.19
503.378	14536.19
503.48	14536.19
503.583	14536.19
503.686	14536.19
503.788	14536.19
503.891	14536.19
503.993	14536.19
504.096	14536.19
504.198	14536.19
504.301	14536.19
504.403	14536.19
504.506	14536.19
504.608	14536.19
504.711	14536.19
504.813	14536.19
504.916	14536.19
505.018	14536.19
505.121	14536.19
505.223	14536.19
505.326	14536.19
505.428	14536.19
505.531	14536.19
505.633	14536.19
505.735	14536.19
505.838	14536.19
505.94	14536.19
506.042	14536.19
506.145	14536.19
506.247	14536.19
506.35	14536.19
506.452	14536.19
506.554	14536.19
506.656	14536.19
506.759	14536.19
506.861	14536.19
506.963	14536.19
507.066	14536.19
507.168	14536.19
507.27	14536.19
507.372	14536.19
507.475	14536.19
507.577	14536.19
507.679	14536.19
507.781	14536.19
507.883	14536.19
507.986	14536.19
508.088	14536.19
508.19	14536.19
508.292	14492.19
508.394	14421.19
508.496	14429.19
508.598	14367.19
508.701	14530.19
508.803	14284.19
508.905	14235.19
509.007	14219.19
509.109	14340.19
509.211	14251.19
509.313	14171.19
509.415	14199.19
509.517	14046.19
509.619	14027.19
509.721	13984.19
509.823	13853.19
509.925	14174.19
510.027	13890.19
510.129	14065.19
510.231	14001.19
510.333	13976.19
510.435	13949.19
510.537	13884.19
510.639	13970.19
510.741	14013.19
510.843	13836.19
510.945	13678.19
511.047	13947.19
511.148	13912.19
511.25	13845.19
511.352	13818.19
511.454	13814.19
511.556	14032.19
511.658	13915.19
511.76	14015.19
511.861	14155.19
511.963	13919.19
512.065	13800.19
512.167	13780.19
512.268	14194.19
512.37	14022.19
512.472	13971.19
512.574	13979.19
512.676	14112.19
512.777	13845.19
512.879	14097.19
512.981	13893.19
513.082	13894.19
513.184	14046.19
513.286	14536.19
513.387	14191.19
513.489	14298.19
513.591	14190.19
513.692	14320.19
513.794	14481.19
513.896	14266.19
513.997	14411.19
514.099	14319.19
514.2	14536.19
514.302	14536.19
514.404	14536.19
514.505	14464.19
514.607	14536.19
514.708	14536.19
514.81	14536.19
514.911	14536.19
515.013	14536.19
515.114	14536.19
515.216	14536.19
515.317	14536.19
515.419	14536.19
515.52	14536.19
515.622	14536.19
515.723	14536.19
515.825	14536.19
515.926	14536.19
516.027	14536.19
516.129	14536.19
516.23	14536.19
516.332	14536.19
516.433	14536.19
516.534	14536.19
516.636	14536.19
516.737	14536.19
516.838	14536.19
516.94	14536.19
517.041	14536.19
517.142	14536.19
517.244	14536.19
517.345	14536.19
517.446	14536.19
517.547	14536.19
517.649	14536.19
517.75	14536.19
517.851	14536.19
517.952	14536.19
518.054	14536.19
518.155	14536.19
518.256	14536.19
518.357	14536.19
518.458	14536.19
518.56	14536.19
518.661	14536.19
518.762	14536.19
518.863	14536.19
518.964	14536.19
519.065	14536.19
519.166	14536.19
519.268	14536.19
519.369	14536.19
519.47	14536.19
519.571	14536.19
519.672	14536.19
519.773	14536.19
519.874	14536.19
519.975	14536.19
520.076	14536.19
520.177	14536.19
520.278	14536.19
520.379	14536.19
520.48	14536.19
520.581	14536.19
520.682	14536.19
520.783	14536.19
520.884	14536.19
520.985	14536.19
521.086	14536.19
521.187	14536.19
521.288	14536.19
521.389	14536.19
521.489	14536.19
521.59	14536.19
521.691	14536.19
521.792	14536.19
521.893	14536.19
521.994	14536.19
522.095	14536.19
522.195	14536.19
522.296	14536.19
522.397	14536.19
522.498	14536.19
522.599	14536.19
522.699	14536.19
522.8	14536.19
522.901	14536.19
523.002	14536.19
523.102	14536.19
523.203	14536.19
523.304	14536.19
523.405	14536.19
523.505	14536.19
523.606	14536.19
523.707	14536.19
523.807	14536.19
523.908	14536.19
524.009	14536.19
524.109	14536.19
524.21	14536.19
524.31	14536.19
524.411	14536.19
524.512	14536.19
524.612	14536.19
524.713	14536.19
524.813	14536.19
524.914	14536.19
525.014	14536.19
525.115	14536.19
525.216	14536.19
525.316	14536.19
525.417	14536.19
525.517	14536.19
525.618	14536.19
525.718	14536.19
525.819	14536.19
525.919	14536.19
526.019	14536.19
526.12	14536.19
526.22	14536.19
526.321	14536.19
526.421	14536.19
526.522	14536.19
526.622	14536.19
526.722	14536.19
526.823	14536.19
526.923	14536.19
527.023	14536.19
527.124	14536.19
527.224	14536.19
527.324	14536.19
527.425	14536.19
527.525	14536.19
527.625	14536.19
527.726	14536.19
527.826	14536.19
527.926	14536.19
528.026	14536.19
528.127	14536.19
528.227	14536.19
528.327	14536.19
528.427	14536.19
528.528	14536.19
528.628	14536.19
528.728	14536.19
528.828	14536.19
528.928	14536.19
529.029	14536.19
529.129	14536.19
529.229	14536.19
529.329	14536.19
529.429	14536.19
529.529	14536.19
529.629	14536.19
529.729	14536.19
529.829	14536.19
529.93	14536.19
530.03	14536.19
530.13	14536.19
530.23	14536.19
530.33	14536.19
530.43	14536.19
530.53	14536.19
530.63	14536.19
530.73	14536.19
530.83	14536.19
530.93	14536.19
531.03	14536.19
531.13	14536.19
531.23	14536.19
531.33	14536.19
531.429	14536.19
531.529	14536.19
531.629	14536.19
531.729	14536.19
531.829	14536.19
531.929	14536.19
532.029	14536.19
532.129	14536.19
532.229	14536.19
532.328	14536.19
532.428	14536.19
532.528	14536.19
532.628	14406.19
532.728	14402.19
532.827	14159.19
532.927	14444.19
533.027	14231.19
533.127	14369.19
533.227	14275.19
533.326	14147.19
533.426	14002.19
533.526	14291.19
533.625	14295.19
533.725	14324.19
533.825	14005.19
533.924	13933.19
534.024	13710.19
534.124	13803.19
534.223	13851.19
534.323	14107.19
534.423	13698.19
534.522	13730.19
534.622	13488.19
534.722	13544.19
534.821	13690.19
534.921	13455.19
535.02	13239.19
535.12	13318.19
535.219	13399.19
535.319	13402.19
535.419	13278.19
535.518	13157.19
535.618	13033.19
535.717	13097.19
535.817	12799.19
535.916	12725.19
536.016	12848.19
536.115	12653.19
536.215	12745.19
536.314	12485.19
536.413	12397.19
536.513	12600.19
536.612	12523.19
536.712	12359.19
536.811	12399.19
536.91	12256.19
537.01	12176.19
537.109	12402.19
537.209	12268.19
537.308	12045.19
537.407	12172.19
537.507	12157.19
537.606	12199.19
537.705	12148.19
537.805	11968.19
537.904	11998.19
538.003	11898.19
538.102	12053.19
538.202	11885.19
538.301	11905.19
538.4	11855.19
538.499	11751.19
538.599	11718.19
538.698	12042.19
538.797	11614.19
538.896	11852.19
538.995	11722.19
539.095	11769.19
539.194	11872.19
539.293	11415.19
539.392	11508.19
539.491	11306.19
539.59	11427.19
539.689	11485.19
539.789	11375.19
539.888	11206.19
539.987	11237.19
540.086	11378.19
540.185	11068.19
540.284	11190.19
540.383	11183.19
540.482	10914.19
540.581	11057.19
540.68	11127.19
540.779	10981.19
540.878	10972.19
540.977	11106.19
541.076	10967.19
541.175	10940.19
541.274	11063.19
541.373	10984.19
541.472	10955.19
541.571	10799.19
541.67	12192.19
541.769	10876.19
541.868	10840.19
541.966	10791.19
542.065	10710.19
542.164	10695.19
542.263	10723.19
542.362	10525.19
542.461	10770.19
542.56	10555.19
542.658	10598.19
542.757	10503.19
542.856	10443.19
542.955	10375.19
543.054	10488.19
543.152	10692.19
543.251	10576.19
543.35	10616.19
543.449	10503.19
543.547	10531.19
543.646	10442.19
543.745	10546.19
543.843	10518.19
543.942	10436.19
544.041	10535.19
544.14	10451.19
544.238	10416.19
544.337	10706.19
544.436	10567.19
544.534	10673.19
544.633	10551.19
544.731	10597.19
544.83	10403.19
544.929	10423.19
545.027	10523.19
545.126	10541.19
545.224	10620.19
545.323	10418.19
545.421	10646.19
545.52	10556.19
545.619	10617.19
545.717	10535.19
545.816	10526.19
545.914	10461.19
546.013	10621.19
546.111	10733.19
546.209	10380.19
546.308	10375.19
546.406	10522.19
546.505	10557.19
546.603	10369.19
546.702	10245.19
546.8	10435.19
546.899	10293.19
546.997	10489.19
547.095	10520.19
547.194	10359.19
547.292	10451.19
547.39	10570.19
547.489	10437.19
547.587	10714.19
547.685	10326.19
547.784	10635.19
547.882	10429.19
547.98	10368.19
548.079	10357.19
548.177	10414.19
548.275	10438.19
548.373	10538.19
548.472	10389.19
548.57	10356.19
548.668	10631.19
548.766	10301.19
548.864	10543.19
548.963	10540.19
549.061	10739.19
549.159	10464.19
549.257	10464.19
549.355	10523.19
549.454	10510.19
549.552	10618.19
549.65	10491.19
549.748	10484.19
549.846	10557.19
549.944	10490.19
550.042	10296.19
550.14	10333.19
550.238	10510.19
550.336	10339.19
550.434	10243.19
550.532	10229.19
550.631	10428.19
550.729	10153.19
550.827	10315.19
550.925	10273.19
551.023	10215.19
551.121	10130.19
551.218	10197.19
551.316	10105.19
551.414	10177.19
551.512	10177.19
551.61	10388.19
551.708	10391.19
551.806	10456.19
551.904	10377.19
552.002	10479.19
552.1	10579.19
552.198	10517.19
552.296	10784.19
552.393	10976.19
552.491	11049.19
552.589	11115.19
552.687	11093.19
552.785	11222.19
552.882	11175.19
552.98	11590.19
553.078	11370.19
553.176	11318.19
553.274	11140.19
553.371	11145.19
553.469	11128.19
553.567	11038.19
553.665	10923.19
553.762	11365.19
553.86	10980.19
553.958	10918.19
554.055	10802.19
554.153	10743.19
554.251	10547.19
554.348	10655.19
554.446	10258.19
554.544	10300.19
554.641	10662.19
554.739	10282.19
554.837	10117.19
554.934	10290.19
555.032	10256.19
555.129	9943.19
555.227	10365.19
555.324	13367.19
555.422	10210.19
555.519	9826.19
555.617	9815.19
555.715	9548.19
555.812	11445.19
555.91	9787.19
556.007	9869.19
556.105	9540.19
556.202	9583.19
556.299	9594.19
556.397	9646.19
556.494	9446.19
556.592	9590.19
556.689	9548.19
556.787	9552.19
556.884	9500.19
556.981	9414.19
557.079	9301.19
557.176	9549.19
557.273	9467.19
557.371	9512.19
557.468	9462.19
557.566	9613.19
557.663	9431.19
557.76	9420.19
557.857	9362.19
557.955	9383.19
558.052	9540.19
558.149	9507.19
558.247	9602.19
558.344	9431.19
558.441	9337.19
558.538	9400.19
558.636	9426.19
558.733	9458.19
558.83	9385.19
558.927	9315.19
559.024	9415.19
559.122	9419.19
559.219	9347.19
559.316	9480.19
559.413	9491.19
559.51	9349.19
559.607	9324.19
559.704	9464.19
559.801	9421.19
559.899	9422.19
559.996	9723.19
560.093	9652.19
560.19	9378.19
560.287	9535.19
560.384	9630.19
560.481	9493.19
560.578	9367.19
560.675	9463.19
560.772	9691.19
560.869	9613.19
560.966	9718.19
561.063	9451.19
561.16	9581.19
561.257	9687.19
561.354	9569.19
561.451	9590.19
561.548	9663.19
561.645	9877.19
561.742	9630.19
561.838	9576.19
561.935	9715.19
562.032	9679.19
562.129	9656.19
562.226	9747.19
562.323	9690.19
562.42	9913.19
562.516	9844.19
562.613	9746.19
562.71	9778.19
562.807	10597.19
562.904	10053.19
563	10007.19
563.097	10000.19
563.194	10036.19
563.291	9930.19
563.387	9984.19
563.484	10175.19
563.581	10064.19
563.678	10118.19
563.774	10533.19
563.871	10349.19
563.968	10145.19
564.064	10420.19
564.161	10620.19
564.258	10434.19
564.354	10741.19
564.451	10744.19
564.548	10778.19
564.644	10806.19
564.741	10958.19
564.837	10924.19
564.934	10999.19
565.031	11172.19
565.127	11332.19
565.224	11452.19
565.32	11643.19
565.417	11763.19
565.513	11954.19
565.61	12094.19
565.706	12434.19
565.803	12573.19
565.899	12699.19
565.996	13290.19
566.092	13357.19
566.189	13759.19
566.285	14081.19
566.382	14536.19
566.478	14536.19
566.574	14536.19
566.671	14536.19
566.767	14536.19
566.864	14536.19
566.96	14536.19
567.056	14536.19
567.153	14536.19
567.249	14536.19
567.345	14536.19
567.442	14536.19
567.538	14536.19
567.634	14536.19
567.731	14536.19
567.827	14536.19
567.923	14536.19
568.019	14536.19
568.116	14536.19
568.212	14536.19
568.308	14536.19
568.404	14536.19
568.501	14194.19
568.597	13670.19
568.693	13281.19
568.789	13676.19
568.885	12542.19
568.982	12340.19
569.078	11992.19
569.174	11827.19
569.27	11456.19
569.366	11443.19
569.462	11262.19
569.558	10968.19
569.655	11007.19
569.751	10835.19
569.847	10742.19
569.943	10597.19
570.039	10555.19
570.135	10957.19
570.231	10486.19
570.327	10521.19
570.423	10490.19
570.519	10499.19
570.615	10192.19
570.711	10525.19
570.807	10492.19
570.903	10366.19
570.999	10402.19
571.095	10205.19
571.191	10209.19
571.287	10163.19
571.383	9929.19
571.479	9711.19
571.574	9669.19
571.67	9500.19
571.766	9590.19
571.862	9281.19
571.958	9301.19
572.054	9239.19
572.15	8916.19
572.246	8863.19
572.341	8959.19
572.437	8786.19
572.533	8926.19
572.629	8887.19
572.725	8570.19
572.82	8755.19
572.916	8686.19
573.012	8657.19
573.108	8515.19
573.203	8517.19
573.299	8376.19
573.395	8278.19
573.49	8236.19
573.586	8165.19
573.682	8276.19
573.778	8476.19
573.873	8216.19
573.969	8065.19
574.065	8058.19
574.16	8225.19
574.256	8134.19
574.351	8144.19
574.447	8153.19
574.543	8035.19
574.638	8103.19
574.734	8082.19
574.829	8130.19
574.925	8004.19
575.02	7845.19
575.116	7841.19
575.212	7867.19
575.307	7802.19
575.403	7709.19
575.498	7615.19
575.594	7621.19
575.689	7772.19
575.784	7695.19
575.88	7772.19
575.975	7519.19
576.071	7357.19
576.166	7426.19
576.262	7468.19
576.357	7323.19
576.452	7669.19
576.548	7314.19
576.643	7279.19
576.739	7320.19
576.834	7224.19
576.929	7217.19
577.025	7819.19
577.12	7123.19
577.215	7135.19
577.311	7085.19
577.406	7085.19
577.501	7181.19
577.597	6840.19
577.692	6992.19
577.787	7140.19
577.882	6848.19
577.978	6913.19
578.073	6820.19
578.168	6825.19
578.263	6712.19
578.358	6664.19
578.454	6683.19
578.549	6538.19
578.644	6448.19
578.739	6542.19
578.834	6426.19
578.929	6402.19
579.025	6504.19
579.12	6507.19
579.215	6567.19
579.31	6543.19
579.405	6264.19
579.5	6461.19
579.595	6402.19
579.69	6204.19
579.785	6201.19
579.88	6210.19
579.975	6232.19
580.07	6120.19
580.165	6209.19
580.26	6205.19
580.355	6150.19
580.45	6065.19
580.545	6047.19
580.64	6038.19
580.735	6105.19
580.83	5972.19
580.925	5894.19
581.02	5824.19
581.115	5942.19
581.21	5841.19
581.305	5827.19
581.4	5883.19
581.495	6026.19
581.589	5783.19
581.684	5717.19
581.779	5855.19
581.874	5857.19
581.969	5762.19
582.064	5611.19
582.158	5731.19
582.253	5657.19
582.348	5639.19
582.443	5740.19
582.537	5641.19
582.632	5689.19
582.727	5573.19
582.822	5538.19
582.916	5531.19
583.011	5507.19
583.106	5417.19
583.201	5307.19
583.295	5395.19
583.39	5469.19
583.485	5395.19
583.579	7632.19
583.674	5523.19
583.769	5594.19
583.863	5303.19
583.958	5322.19
584.052	5198.19
584.147	5273.19
584.242	5158.19
584.336	5292.19
584.431	5387.19
584.525	5204.19
584.62	5322.19
584.714	5265.19
584.809	5169.19
584.903	5237.19
584.998	5173.19
585.092	5006.19
585.187	5175.19
585.281	5043.19
585.376	5148.19
585.47	5147.19
585.565	5154.19
585.659	4952.19
585.754	5035.19
585.848	5114.19
585.942	4927.19
586.037	4982.19
586.131	7218.19
586.226	5126.19
586.32	5034.19
586.414	4851.19
586.509	4983.19
586.603	4986.19
586.697	4922.19
586.792	4877.19
586.886	4737.19
586.98	4877.19
587.075	4850.19
587.169	4757.19
587.263	5059.19
587.357	4874.19
587.452	4795.19
587.546	4868.19
587.64	4780.19
587.734	4736.19
587.829	4830.19
587.923	4694.19
588.017	4771.19
588.111	4629.19
588.205	4775.19
588.3	4763.19
588.394	4638.19
588.488	4721.19
588.582	4841.19
588.676	5036.19
588.77	5904.19
588.864	8864.19
588.958	8838.19
589.052	7479.19
589.147	5973.19
589.241	5305.19
589.335	5390.19
589.429	6912.19
589.523	7552.19
589.617	6877.19
589.711	5788.19
589.805	5061.19
589.899	4890.19
589.993	4661.19
590.087	4635.19
590.181	4621.19
590.275	4659.19
590.369	4635.19
590.462	4523.19
590.556	4585.19
590.65	4487.19
590.744	4651.19
590.838	4577.19
590.932	4554.19
591.026	4619.19
591.12	4703.19
591.214	4612.19
591.307	4699.19
591.401	4724.19
591.495	4707.19
591.589	4679.19
591.683	4682.19
591.777	4851.19
591.87	5027.19
591.964	4820.19
592.058	4794.19
592.152	4876.19
592.245	4874.19
592.339	4997.19
592.433	5036.19
592.527	5139.19
592.62	4990.19
592.714	5134.19
592.808	5266.19
592.901	5224.19
592.995	5105.19
593.089	5494.19
593.182	5330.19
593.276	5091.19
593.37	5109.19
593.463	5228.19
593.557	5197.19
593.65	5236.19
593.744	5360.19
593.837	5317.19
593.931	5201.19
594.025	8932.19
594.118	5346.19
594.212	5134.19
594.305	5054.19
594.399	5153.19
594.492	5363.19
594.586	4919.19
594.679	4912.19
594.773	4735.19
594.866	4698.19
594.96	4698.19
595.053	4541.19
595.146	4502.19
595.24	4466.19
595.333	4343.19
595.427	4251.19
595.52	4240.19
595.614	4437.19
595.707	4218.19
595.8	4198.19
595.894	4072.19
595.987	3994.19
596.08	3949.19
596.174	4299.19
596.267	4016.19
596.36	4026.19
596.454	4062.19
596.547	3954.19
596.64	3786.19
596.733	3763.19
596.827	3851.19
596.92	3728.19
597.013	3715.19
597.106	3725.19
597.2	3686.19
597.293	3660.19
597.386	3866.19
597.479	3719.19
597.572	3629.19
597.666	3698.19
597.759	3611.19
597.852	3623.19
597.945	3554.19
598.038	3514.19
598.131	3531.19
598.224	3476.19
598.317	3570.19
598.411	3470.19
598.504	3473.19
598.597	3579.19
598.69	3435.19
598.783	3507.19
598.876	3545.19
598.969	3429.19
599.062	3411.19
599.155	3616.19
599.248	3466.19
599.341	3445.19
599.434	3428.19
599.527	3515.19
599.62	3446.19
599.713	3345.19
599.806	3463.19
599.899	3463.19
599.991	3412.19
600.084	3681.19
600.177	3330.19
600.27	3380.19
600.363	3592.19
600.456	3311.19
600.549	3346.19
600.642	3317.19
600.734	3307.19
600.827	3299.19
600.92	3388.19
601.013	3375.19
601.106	3461.19
601.199	3340.19
601.291	3324.19
601.384	3223.19
601.477	3495.19
601.57	3387.19
601.662	3248.19
601.755	3259.19
601.848	3287.19
601.94	3192.19
602.033	3257.19
602.126	3266.19
602.219	3195.19
602.311	3261.19
602.404	3183.19
602.497	3253.19
602.589	3147.19
602.682	3239.19
602.774	3262.19
602.867	3107.19
602.96	3122.19
603.052	3205.19
603.145	3195.19
603.237	3147.19
603.33	3232.19
603.422	3288.19
603.515	3106.19
603.608	3247.19
603.7	3199.19
603.793	3120.19
603.885	3122.19
603.978	3225.19
604.07	2993.19
604.163	3005.19
604.255	3160.19
604.347	3150.19
604.44	3068.19
604.532	3118.19
604.625	3221.19
604.717	3041.19
604.81	3138.19
604.902	3060.19
604.994	3014.19
605.087	3073.19
605.179	3070.19
605.271	3078.19
605.364	3007.19
605.456	3119.19
605.548	3045.19
605.641	3027.19
605.733	3110.19
605.825	3023.19
605.918	2907.19
606.01	3155.19
606.102	3397.19
606.194	3020.19
606.287	3150.19
606.379	3013.19
606.471	2990.19
606.563	3094.19
606.655	3089.19
606.748	3070.19
606.84	2994.19
606.932	3070.19
607.024	3053.19
607.116	2919.19
607.208	2966.19
607.301	3113.19
607.393	2932.19
607.485	2923.19
607.577	2993.19
607.669	3018.19
607.761	3016.19
607.853	3262.19
607.945	2882.19
608.037	2828.19
608.129	2925.19
608.221	2942.19
608.313	2855.19
608.405	2898.19
608.497	2938.19
608.589	2857.19
608.681	2968.19
608.773	3010.19
608.865	2856.19
608.957	2854.19
609.049	2921.19
609.141	2963.19
609.233	2905.19
609.325	2847.19
609.417	2925.19
609.509	3011.19
609.601	2994.19
609.693	2989.19
609.784	2829.19
609.876	2940.19
609.968	2959.19
610.06	4906.19
610.152	3138.19
610.244	3111.19
610.335	2872.19
610.427	2767.19
610.519	2767.19
610.611	2847.19
610.702	2758.19
610.794	2782.19
610.886	2807.19
610.978	2740.19
611.069	3133.19
611.161	2764.19
611.253	2662.19
611.344	2577.19
611.436	2540.19
611.528	2561.19
611.62	2427.19
611.711	2498.19
611.803	2438.19
611.894	2378.19
611.986	2331.19
612.078	2452.19
612.169	2400.19
612.261	2306.19
612.352	2232.19
612.444	2194.19
612.536	2326.19
612.627	2213.19
612.719	2111.19
612.81	2054.19
612.902	2044.19
612.993	2021.19
613.085	1984.19
613.176	1909.19
613.268	1956.19
613.359	1869.19
613.451	1844.19
613.542	1969.19
613.634	1835.19
613.725	1877.19
613.816	1904.19
613.908	1698.19
613.999	1689.19
614.091	1619.19
614.182	1556.19
614.273	1597.19
614.365	1519.19
614.456	1477.19
614.547	1465.19
614.639	1452.19
614.73	1451.19
614.821	1461.19
614.913	1350.19
615.004	1284.19
615.095	1264.19
615.187	1263.19
