Data from 7g_HRC06701__58__180.txt Node

Date: Thu Apr 18 01:50:47 CDT 2024
User: Estudiantes 2
Spectrometer: HR+C0670
Trigger mode: 4
Integration Time (sec): 1.000000E0
Scans to average: 1
Electric dark correction enabled: true
Nonlinearity correction enabled: false
Boxcar width: 0
XAxis mode: Wavelengths
Number of Pixels in Spectrum: 2048
>>>>>Begin Spectral Data<<<<<
407.81	-103.75
407.921	-103.75
408.032	-103.75
408.143	-134.75
408.254	-124.75
408.365	34.25
408.476	259.25
408.587	-17.75
408.699	1.25
408.81	20.25
408.921	-47.75
409.032	-53.75
409.143	52.25
409.254	17.25
409.365	71.25
409.476	-3.75
409.587	-19.75
409.698	50.25
409.809	86.25
409.92	24.25
410.031	-29.75
410.142	61.25
410.253	73.25
410.364	35.25
410.475	311.25
410.585	1612.25
410.696	1795.25
410.807	1771.25
410.918	1796.25
411.029	1776.25
411.14	1777.25
411.251	1762.25
411.362	1853.25
411.472	1841.25
411.583	1763.25
411.694	1945.25
411.805	1815.25
411.916	1824.25
412.026	1888.25
412.137	1801.25
412.248	1803.25
412.359	1910.25
412.47	1694.25
412.58	1728.25
412.691	1873.25
412.802	1752.25
412.912	1735.25
413.023	1777.25
413.134	1791.25
413.245	1831.25
413.355	1738.25
413.466	1784.25
413.577	1760.25
413.687	1859.25
413.798	1707.25
413.909	1872.25
414.019	1784.25
414.13	1803.25
414.24	1791.25
414.351	1831.25
414.462	1974.25
414.572	1864.25
414.683	1822.25
414.793	1780.25
414.904	2131.25
415.014	1765.25
415.125	1698.25
415.235	1826.25
415.346	1869.25
415.456	1849.25
415.567	1879.25
415.677	1777.25
415.788	1850.25
415.898	1741.25
416.009	1794.25
416.119	1772.25
416.23	1777.25
416.34	1741.25
416.45	1776.25
416.561	2360.25
416.671	1899.25
416.782	1745.25
416.892	1777.25
417.002	1881.25
417.113	1850.25
417.223	1769.25
417.333	1766.25
417.444	1806.25
417.554	1854.25
417.664	1907.25
417.775	1805.25
417.885	1856.25
417.995	1890.25
418.106	2049.25
418.216	1915.25
418.326	1959.25
418.436	1983.25
418.547	1997.25
418.657	1978.25
418.767	2092.25
418.877	2046.25
418.987	1990.25
419.098	2031.25
419.208	2043.25
419.318	2121.25
419.428	2126.25
419.538	2064.25
419.648	2034.25
419.759	2064.25
419.869	2111.25
419.979	2010.25
420.089	2090.25
420.199	2073.25
420.309	2042.25
420.419	2113.25
420.529	2124.25
420.639	2437.25
420.749	2081.25
420.859	2156.25
420.969	2143.25
421.079	2288.25
421.189	2122.25
421.299	2135.25
421.409	2034.25
421.519	2190.25
421.629	2214.25
421.739	2134.25
421.849	2151.25
421.959	2141.25
422.069	2178.25
422.179	2113.25
422.289	2136.25
422.399	2241.25
422.509	2220.25
422.619	5206.25
422.729	2542.25
422.838	2238.25
422.948	2340.25
423.058	2317.25
423.168	2375.25
423.278	2314.25
423.388	2418.25
423.498	2431.25
423.607	2387.25
423.717	2685.25
423.827	2686.25
423.937	2459.25
424.046	2504.25
424.156	2630.25
424.266	2452.25
424.376	2671.25
424.485	2694.25
424.595	2502.25
424.705	2444.25
424.815	2503.25
424.924	2958.25
425.034	2586.25
425.144	2487.25
425.253	2551.25
425.363	2711.25
425.473	2547.25
425.582	2546.25
425.692	2512.25
425.801	2535.25
425.911	2763.25
426.021	2658.25
426.13	2787.25
426.24	2906.25
426.349	2830.25
426.459	2705.25
426.568	2659.25
426.678	2755.25
426.787	2696.25
426.897	2669.25
427.006	2842.25
427.116	2846.25
427.225	2785.25
427.335	2852.25
427.444	2810.25
427.554	2849.25
427.663	2875.25
427.773	2894.25
427.882	2909.25
427.992	2826.25
428.101	2839.25
428.21	2828.25
428.32	2895.25
428.429	2920.25
428.539	3133.25
428.648	2981.25
428.757	3053.25
428.867	3027.25
428.976	3164.25
429.085	3098.25
429.195	3024.25
429.304	2974.25
429.413	3061.25
429.523	3124.25
429.632	3142.25
429.741	3026.25
429.85	3041.25
429.96	3111.25
430.069	3095.25
430.178	3179.25
430.287	3331.25
430.397	3207.25
430.506	3191.25
430.615	3105.25
430.724	3214.25
430.833	3188.25
430.943	3210.25
431.052	3242.25
431.161	3240.25
431.27	3360.25
431.379	3336.25
431.488	3522.25
431.597	3518.25
431.706	3506.25
431.816	3421.25
431.925	3407.25
432.034	3417.25
432.143	3426.25
432.252	3307.25
432.361	3506.25
432.47	3435.25
432.579	3373.25
432.688	3483.25
432.797	3440.25
432.906	3302.25
433.015	3461.25
433.124	3673.25
433.233	3464.25
433.342	3481.25
433.451	3463.25
433.56	3406.25
433.669	3416.25
433.778	3481.25
433.886	3512.25
433.995	3504.25
434.104	3647.25
434.213	3559.25
434.322	3567.25
434.431	3829.25
434.54	3741.25
434.649	3939.25
434.757	3841.25
434.866	3835.25
434.975	3737.25
435.084	3748.25
435.193	3738.25
435.301	3798.25
435.41	3772.25
435.519	3912.25
435.628	3415.25
435.737	3326.25
435.845	3390.25
435.954	3258.25
436.063	3245.25
436.171	3260.25
436.28	3250.25
436.389	3387.25
436.498	3249.25
436.606	3275.25
436.715	3306.25
436.823	3100.25
436.932	3148.25
437.041	3082.25
437.149	3130.25
437.258	3126.25
437.367	2996.25
437.475	3016.25
437.584	3376.25
437.692	3039.25
437.801	4432.25
437.91	3146.25
438.018	3013.25
438.127	2912.25
438.235	2980.25
438.344	2998.25
438.452	3001.25
438.561	2956.25
438.669	3054.25
438.778	2863.25
438.886	2948.25
438.995	2984.25
439.103	2966.25
439.212	2876.25
439.32	3003.25
439.428	2877.25
439.537	2943.25
439.645	3075.25
439.754	3091.25
439.862	2890.25
439.97	3026.25
440.079	3017.25
440.187	2981.25
440.295	3110.25
440.404	3024.25
440.512	3054.25
440.62	3106.25
440.729	3110.25
440.837	3166.25
440.945	3743.25
441.054	3197.25
441.162	3210.25
441.27	3267.25
441.378	3285.25
441.487	3422.25
441.595	3735.25
441.703	3459.25
441.811	3375.25
441.92	3232.25
442.028	3176.25
442.136	3320.25
442.244	3247.25
442.352	3214.25
442.461	3127.25
442.569	3105.25
442.677	3153.25
442.785	3196.25
442.893	3182.25
443.001	3075.25
443.109	3087.25
443.217	3076.25
443.325	3106.25
443.434	3671.25
443.542	3458.25
443.65	3213.25
443.758	3357.25
443.866	3286.25
443.974	3613.25
444.082	3378.25
444.19	3530.25
444.298	3680.25
444.406	3637.25
444.514	3693.25
444.622	3860.25
444.73	3787.25
444.838	3688.25
444.946	3705.25
445.054	3477.25
445.161	3477.25
445.269	3372.25
445.377	3452.25
445.485	3300.25
445.593	3245.25
445.701	3467.25
445.809	3296.25
445.917	3233.25
446.025	3204.25
446.132	3301.25
446.24	3325.25
446.348	3308.25
446.456	3149.25
446.564	3134.25
446.671	3276.25
446.779	3219.25
446.887	3136.25
446.995	3131.25
447.102	3210.25
447.21	3198.25
447.318	3174.25
447.426	3102.25
447.533	3371.25
447.641	4261.25
447.749	3289.25
447.856	3117.25
447.964	3145.25
448.072	3273.25
448.179	3135.25
448.287	3147.25
448.395	3178.25
448.502	3122.25
448.61	3190.25
448.718	3183.25
448.825	3251.25
448.933	3163.25
449.04	3169.25
449.148	3294.25
449.256	3275.25
449.363	3222.25
449.471	3311.25
449.578	3397.25
449.686	3277.25
449.793	3414.25
449.901	3375.25
450.008	3363.25
450.116	3403.25
450.223	3426.25
450.331	3473.25
450.438	3519.25
450.546	3693.25
450.653	3645.25
450.76	3657.25
450.868	3687.25
450.975	3889.25
451.083	3664.25
451.19	3825.25
451.297	3712.25
451.405	3682.25
451.512	3676.25
451.619	3869.25
451.727	3857.25
451.834	3725.25
451.941	3834.25
452.049	3754.25
452.156	3770.25
452.263	3777.25
452.371	3811.25
452.478	3821.25
452.585	4001.25
452.692	3757.25
452.8	3852.25
452.907	4012.25
453.014	3951.25
453.121	3888.25
453.229	3916.25
453.336	4078.25
453.443	4025.25
453.55	3917.25
453.657	3983.25
453.765	4020.25
453.872	3951.25
453.979	4142.25
454.086	4103.25
454.193	4030.25
454.3	3962.25
454.407	4227.25
454.514	4123.25
454.621	4024.25
454.729	4129.25
454.836	4042.25
454.943	4079.25
455.05	4188.25
455.157	4173.25
455.264	4012.25
455.371	4190.25
455.478	4231.25
455.585	5401.25
455.692	4234.25
455.799	4399.25
455.906	4209.25
456.013	4184.25
456.12	4249.25
456.227	4210.25
456.334	4294.25
456.44	4409.25
456.547	4336.25
456.654	4225.25
456.761	4421.25
456.868	4500.25
456.975	4433.25
457.082	4247.25
457.189	4380.25
457.296	4366.25
457.402	4383.25
457.509	4412.25
457.616	4473.25
457.723	4710.25
457.83	4633.25
457.936	4601.25
458.043	4896.25
458.15	4638.25
458.257	4880.25
458.363	4817.25
458.47	4787.25
458.577	5040.25
458.684	4930.25
458.79	5250.25
458.897	5260.25
459.004	5350.25
459.11	5247.25
459.217	5403.25
459.324	5423.25
459.43	5593.25
459.537	5704.25
459.644	5715.25
459.75	5529.25
459.857	5970.25
459.964	5755.25
460.07	5737.25
460.177	5911.25
460.283	5990.25
460.39	6185.25
460.496	5865.25
460.603	5987.25
460.71	5921.25
460.816	5848.25
460.923	5848.25
461.029	5897.25
461.136	5944.25
461.242	5827.25
461.349	5897.25
461.455	5832.25
461.562	6181.25
461.668	6122.25
461.774	6015.25
461.881	5994.25
461.987	6127.25
462.094	6285.25
462.2	6346.25
462.307	6398.25
462.413	6256.25
462.519	6434.25
462.626	6902.25
462.732	6989.25
462.838	7135.25
462.945	7243.25
463.051	7371.25
463.157	7199.25
463.264	7019.25
463.37	6913.25
463.476	6673.25
463.583	6694.25
463.689	6652.25
463.795	6682.25
463.901	6583.25
464.008	6797.25
464.114	6722.25
464.22	6587.25
464.326	6564.25
464.433	6382.25
464.539	6289.25
464.645	6070.25
464.751	6333.25
464.857	5954.25
464.963	5667.25
465.07	5588.25
465.176	5498.25
465.282	5306.25
465.388	5201.25
465.494	5045.25
465.6	4917.25
465.706	4672.25
465.812	4742.25
465.918	4654.25
466.024	4674.25
466.131	4794.25
466.237	4479.25
466.343	4374.25
466.449	4380.25
466.555	4354.25
466.661	4182.25
466.767	4254.25
466.873	4118.25
466.979	4288.25
467.085	4168.25
467.191	4167.25
467.296	4106.25
467.402	4021.25
467.508	4187.25
467.614	4147.25
467.72	3952.25
467.826	3934.25
467.932	3937.25
468.038	3836.25
468.144	3867.25
468.25	3848.25
468.355	3807.25
468.461	3798.25
468.567	3794.25
468.673	3772.25
468.779	3746.25
468.885	3766.25
468.99	3745.25
469.096	3817.25
469.202	3944.25
469.308	3766.25
469.413	3870.25
469.519	3818.25
469.625	3874.25
469.731	3812.25
469.836	3891.25
469.942	4163.25
470.048	3912.25
470.153	3917.25
470.259	3890.25
470.365	3986.25
470.47	3961.25
470.576	3995.25
470.682	3871.25
470.787	3816.25
470.893	3645.25
470.999	3839.25
471.104	3778.25
471.21	3593.25
471.315	3470.25
471.421	3526.25
471.527	3618.25
471.632	3548.25
471.738	3459.25
471.843	3434.25
471.949	3547.25
472.054	3360.25
472.16	3336.25
472.265	3297.25
472.371	3322.25
472.476	3289.25
472.582	3323.25
472.687	3270.25
472.793	3230.25
472.898	3214.25
473.003	3260.25
473.109	3187.25
473.214	3173.25
473.32	3185.25
473.425	3146.25
473.53	3166.25
473.636	3116.25
473.741	3101.25
473.847	3082.25
473.952	3176.25
474.057	3259.25
474.163	3174.25
474.268	3040.25
474.373	3191.25
474.478	3009.25
474.584	3056.25
474.689	3242.25
474.794	3169.25
474.9	3399.25
475.005	3135.25
475.11	3283.25
475.215	3087.25
475.321	3097.25
475.426	3361.25
475.531	3297.25
475.636	3138.25
475.741	3135.25
475.846	3335.25
475.952	3360.25
476.057	3225.25
476.162	3217.25
476.267	3250.25
476.372	3444.25
476.477	3214.25
476.582	3266.25
476.687	3256.25
476.793	3282.25
476.898	3272.25
477.003	3331.25
477.108	3261.25
477.213	3271.25
477.318	3262.25
477.423	3446.25
477.528	3455.25
477.633	3450.25
477.738	3552.25
477.843	3456.25
477.948	3579.25
478.053	3605.25
478.158	3533.25
478.263	3600.25
478.368	3623.25
478.473	3727.25
478.578	3633.25
478.682	3588.25
478.787	3794.25
478.892	3710.25
478.997	3862.25
479.102	3825.25
479.207	3697.25
479.312	3776.25
479.417	3765.25
479.521	3742.25
479.626	3879.25
479.731	3874.25
479.836	3803.25
479.941	3987.25
480.045	3973.25
480.15	4089.25
480.255	4057.25
480.36	4054.25
480.465	4161.25
480.569	4219.25
480.674	4068.25
480.779	3880.25
480.883	3952.25
480.988	3994.25
481.093	3846.25
481.197	3905.25
481.302	3806.25
481.407	3871.25
481.511	5027.25
481.616	3944.25
481.721	3847.25
481.825	4063.25
481.93	3751.25
482.035	3828.25
482.139	3884.25
482.244	3978.25
482.348	3898.25
482.453	3919.25
482.557	4017.25
482.662	3911.25
482.767	3863.25
482.871	3962.25
482.976	4028.25
483.08	3996.25
483.185	4225.25
483.289	4048.25
483.394	4017.25
483.498	4075.25
483.603	4099.25
483.707	4079.25
483.811	4118.25
483.916	4245.25
484.02	4146.25
484.125	4320.25
484.229	4299.25
484.333	4300.25
484.438	4210.25
484.542	4307.25
484.647	4354.25
484.751	4426.25
484.855	4444.25
484.96	4456.25
485.064	4504.25
485.168	4554.25
485.273	4555.25
485.377	4488.25
485.481	4744.25
485.585	4684.25
485.69	4659.25
485.794	4695.25
485.898	4824.25
486.002	4763.25
486.107	4707.25
486.211	4716.25
486.315	4852.25
486.419	4831.25
486.524	4744.25
486.628	4761.25
486.732	4694.25
486.836	4760.25
486.94	4887.25
487.044	4783.25
487.148	4745.25
487.253	4708.25
487.357	4714.25
487.461	4858.25
487.565	4819.25
487.669	4842.25
487.773	4734.25
487.877	4868.25
487.981	4812.25
488.085	4878.25
488.189	4807.25
488.293	5023.25
488.397	5235.25
488.501	4859.25
488.605	4777.25
488.709	4703.25
488.813	4735.25
488.917	4796.25
489.021	4819.25
489.125	4961.25
489.229	4800.25
489.333	4968.25
489.437	4886.25
489.541	4901.25
489.645	4989.25
489.749	4909.25
489.853	4997.25
489.956	4920.25
490.06	4894.25
490.164	4801.25
490.268	4972.25
490.372	4986.25
490.476	4874.25
490.579	4961.25
490.683	5536.25
490.787	4985.25
490.891	4897.25
490.995	4971.25
491.098	4946.25
491.202	4939.25
491.306	4961.25
491.41	4853.25
491.513	4857.25
491.617	4839.25
491.721	5074.25
491.824	5113.25
491.928	5010.25
492.032	5195.25
492.136	4905.25
492.239	4857.25
492.343	5039.25
492.446	5398.25
492.55	5000.25
492.654	4960.25
492.757	4843.25
492.861	5063.25
492.965	4925.25
493.068	4993.25
493.172	4986.25
493.275	5033.25
493.379	5002.25
493.482	4972.25
493.586	5064.25
493.689	5176.25
493.793	4966.25
493.896	5203.25
494	5152.25
494.103	5128.25
494.207	5451.25
494.31	5492.25
494.414	5094.25
494.517	4999.25
494.621	4922.25
494.724	4979.25
494.828	4969.25
494.931	4925.25
495.034	4927.25
495.138	5113.25
495.241	4839.25
495.345	5738.25
495.448	5054.25
495.551	4908.25
495.655	4864.25
495.758	4803.25
495.861	4784.25
495.965	4873.25
496.068	4874.25
496.171	4960.25
496.274	4881.25
496.378	4948.25
496.481	4985.25
496.584	4964.25
496.687	5068.25
496.791	4928.25
496.894	4987.25
496.997	5030.25
497.1	5121.25
497.204	5078.25
497.307	5050.25
497.41	5275.25
497.513	5382.25
497.616	5163.25
497.719	5304.25
497.823	5368.25
497.926	5455.25
498.029	5611.25
498.132	5570.25
498.235	5669.25
498.338	5890.25
498.441	6002.25
498.544	6114.25
498.647	6246.25
498.75	6459.25
498.853	6745.25
498.956	6813.25
499.059	7123.25
499.163	7138.25
499.266	7482.25
499.369	7782.25
499.471	8003.25
499.574	8508.25
499.677	8648.25
499.78	9064.25
499.883	9476.25
499.986	10166.25
500.089	10458.25
500.192	10519.25
500.295	10649.25
500.398	10621.25
500.501	10439.25
500.604	10079.25
500.707	9817.25
500.809	9474.25
500.912	8994.25
501.015	8754.25
501.118	8136.25
501.221	7788.25
501.324	7432.25
501.426	7174.25
501.529	6835.25
501.632	6606.25
501.735	6330.25
501.837	6153.25
501.94	6017.25
502.043	5955.25
502.146	5742.25
502.248	5568.25
502.351	5519.25
502.454	5397.25
502.557	5270.25
502.659	5218.25
502.762	4900.25
502.865	4879.25
502.967	4811.25
503.07	4758.25
503.173	4695.25
503.275	4683.25
503.378	4576.25
503.48	4508.25
503.583	4597.25
503.686	4516.25
503.788	4688.25
503.891	4558.25
503.993	4746.25
504.096	4492.25
504.198	4522.25
504.301	4417.25
504.403	4502.25
504.506	4488.25
504.608	4308.25
504.711	4372.25
504.813	4286.25
504.916	4107.25
505.018	4080.25
505.121	3922.25
505.223	4065.25
505.326	3809.25
505.428	3910.25
505.531	3826.25
505.633	3815.25
505.735	3655.25
505.838	3660.25
505.94	3644.25
506.042	3609.25
506.145	3515.25
506.247	3593.25
506.35	3560.25
506.452	3536.25
506.554	3527.25
506.656	3588.25
506.759	3461.25
506.861	3411.25
506.963	3429.25
507.066	3519.25
507.168	3522.25
507.27	3410.25
507.372	3441.25
507.475	3432.25
507.577	3357.25
507.679	3317.25
507.781	3297.25
507.883	3268.25
507.986	3374.25
508.088	3290.25
508.19	3258.25
508.292	3318.25
508.394	3348.25
508.496	3202.25
508.598	3235.25
508.701	3385.25
508.803	3244.25
508.905	3212.25
509.007	3345.25
509.109	3231.25
509.211	3315.25
509.313	3247.25
509.415	3107.25
509.517	3226.25
509.619	3198.25
509.721	3146.25
509.823	3139.25
509.925	3359.25
510.027	3170.25
510.129	3134.25
510.231	3179.25
510.333	3125.25
510.435	3122.25
510.537	3257.25
510.639	3256.25
510.741	3153.25
510.843	3191.25
510.945	3174.25
511.047	3205.25
511.148	3179.25
511.25	3129.25
511.352	3262.25
511.454	3150.25
511.556	3213.25
511.658	3226.25
511.76	3228.25
511.861	3296.25
511.963	3206.25
512.065	3097.25
512.167	3079.25
512.268	3349.25
512.37	3190.25
512.472	3181.25
512.574	3296.25
512.676	3223.25
512.777	3143.25
512.879	3131.25
512.981	3161.25
513.082	3166.25
513.184	3157.25
513.286	3753.25
513.387	3287.25
513.489	3375.25
513.591	3355.25
513.692	3360.25
513.794	3365.25
513.896	3203.25
513.997	3298.25
514.099	3149.25
514.2	3291.25
514.302	3367.25
514.404	3337.25
514.505	3277.25
514.607	3464.25
514.708	3297.25
514.81	3412.25
514.911	3576.25
515.013	3434.25
515.114	3470.25
515.216	3466.25
515.317	3470.25
515.419	3440.25
515.52	3531.25
515.622	3566.25
515.723	3545.25
515.825	3751.25
515.926	3670.25
516.027	3613.25
516.129	3691.25
516.23	3765.25
516.332	3775.25
516.433	3844.25
516.534	4081.25
516.636	4097.25
516.737	3963.25
516.838	5005.25
516.94	4339.25
517.041	4307.25
517.142	4534.25
517.244	4595.25
517.345	4518.25
517.446	4615.25
517.547	4707.25
517.649	4638.25
517.75	4731.25
517.851	4625.25
517.952	4851.25
518.054	4506.25
518.155	4649.25
518.256	4425.25
518.357	4439.25
518.458	4228.25
518.56	4290.25
518.661	4255.25
518.762	4150.25
518.863	4267.25
518.964	4173.25
519.065	4011.25
519.166	3915.25
519.268	3917.25
519.369	4124.25
519.47	3885.25
519.571	3885.25
519.672	3661.25
519.773	3767.25
519.874	3866.25
519.975	3809.25
520.076	3748.25
520.177	3848.25
520.278	3751.25
520.379	3783.25
520.48	3667.25
520.581	3601.25
520.682	3742.25
520.783	3734.25
520.884	3813.25
520.985	3776.25
521.086	3686.25
521.187	3772.25
521.288	3649.25
521.389	3701.25
521.489	3730.25
521.59	3612.25
521.691	3707.25
521.792	3619.25
521.893	3864.25
521.994	3795.25
522.095	3696.25
522.195	3835.25
522.296	3783.25
522.397	3704.25
522.498	3699.25
522.599	3620.25
522.699	3574.25
522.8	3665.25
522.901	3759.25
523.002	3717.25
523.102	3904.25
523.203	3694.25
523.304	3795.25
523.405	3660.25
523.505	3763.25
523.606	3688.25
523.707	3690.25
523.807	3745.25
523.908	3684.25
524.009	3767.25
524.109	3798.25
524.21	3656.25
524.31	3697.25
524.411	3880.25
524.512	3807.25
524.612	3724.25
524.713	3925.25
524.813	3782.25
524.914	3885.25
525.014	7881.25
525.115	3993.25
525.216	3640.25
525.316	3685.25
525.417	3775.25
525.517	3633.25
525.618	3644.25
525.718	3658.25
525.819	3697.25
525.919	3723.25
526.019	3758.25
526.12	3840.25
526.22	3677.25
526.321	3759.25
526.421	3711.25
526.522	3651.25
526.622	3650.25
526.722	3753.25
526.823	3698.25
526.923	3659.25
527.023	3875.25
527.124	3655.25
527.224	3803.25
527.324	3683.25
527.425	3783.25
527.525	3601.25
527.625	3645.25
527.726	3700.25
527.826	3696.25
527.926	3723.25
528.026	3787.25
528.127	3584.25
528.227	3680.25
528.327	3809.25
528.427	3694.25
528.528	3830.25
528.628	3811.25
528.728	3718.25
528.828	3781.25
528.928	3753.25
529.029	3724.25
529.129	3684.25
529.229	3716.25
529.329	3778.25
529.429	3681.25
529.529	3806.25
529.629	3832.25
529.729	3688.25
529.829	3804.25
529.93	3643.25
530.03	3687.25
530.13	3659.25
530.23	3666.25
530.33	3711.25
530.43	3647.25
530.53	3672.25
530.63	3631.25
530.73	3465.25
530.83	3554.25
530.93	3530.25
531.03	3474.25
531.13	3651.25
531.23	3550.25
531.33	3615.25
531.429	3644.25
531.529	3606.25
531.629	3673.25
531.729	3463.25
531.829	3454.25
531.929	3569.25
532.029	3519.25
532.129	3476.25
532.229	3608.25
532.328	3405.25
532.428	3469.25
532.528	3518.25
532.628	3357.25
532.728	3465.25
532.827	3447.25
532.927	3510.25
533.027	3398.25
533.127	3440.25
533.227	3536.25
533.326	3447.25
533.426	3336.25
533.526	3572.25
533.625	3546.25
533.725	3623.25
533.825	3475.25
533.924	3307.25
534.024	3197.25
534.124	3281.25
534.223	3438.25
534.323	3729.25
534.423	3407.25
534.522	3359.25
534.622	3233.25
534.722	3228.25
534.821	3381.25
534.921	3207.25
535.02	3176.25
535.12	3304.25
535.219	3319.25
535.319	3178.25
535.419	3280.25
535.518	3184.25
535.618	3129.25
535.717	3218.25
535.817	3080.25
535.916	3010.25
536.016	3169.25
536.115	3165.25
536.215	3039.25
536.314	2901.25
536.413	2977.25
536.513	3064.25
536.612	2944.25
536.712	2927.25
536.811	3014.25
536.91	2869.25
537.01	2937.25
537.109	3058.25
537.209	2923.25
537.308	2892.25
537.407	2905.25
537.507	2900.25
537.606	2927.25
537.705	2980.25
537.805	2928.25
537.904	2803.25
538.003	2912.25
538.102	3004.25
538.202	2873.25
538.301	2954.25
538.4	2951.25
538.499	2875.25
538.599	2874.25
538.698	3145.25
538.797	2786.25
538.896	2903.25
538.995	2928.25
539.095	2800.25
539.194	2975.25
539.293	2877.25
539.392	2734.25
539.491	2706.25
539.59	2747.25
539.689	2902.25
539.789	2886.25
539.888	2679.25
539.987	2701.25
540.086	2730.25
540.185	2744.25
540.284	2758.25
540.383	2684.25
540.482	2697.25
540.581	2716.25
540.68	2683.25
540.779	2739.25
540.878	2619.25
540.977	2782.25
541.076	2719.25
541.175	2731.25
541.274	2922.25
541.373	2757.25
541.472	2667.25
541.571	2638.25
541.67	3849.25
541.769	2774.25
541.868	2690.25
541.966	2711.25
542.065	2620.25
542.164	2644.25
542.263	2629.25
542.362	2598.25
542.461	2661.25
542.56	2665.25
542.658	2669.25
542.757	2542.25
542.856	2586.25
542.955	2536.25
543.054	2536.25
543.152	2782.25
543.251	2583.25
543.35	2703.25
543.449	2601.25
543.547	2618.25
543.646	2522.25
543.745	2545.25
543.843	2679.25
543.942	2586.25
544.041	2549.25
544.14	2731.25
544.238	2547.25
544.337	2707.25
544.436	2674.25
544.534	2756.25
544.633	2675.25
544.731	2657.25
544.83	2628.25
544.929	2599.25
545.027	2658.25
545.126	2559.25
545.224	2685.25
545.323	2551.25
545.421	2707.25
545.52	2719.25
545.619	2638.25
545.717	2672.25
545.816	2689.25
545.914	2714.25
546.013	2816.25
546.111	2771.25
546.209	2606.25
546.308	2514.25
546.406	2664.25
546.505	2750.25
546.603	2575.25
546.702	2570.25
546.8	2543.25
546.899	2593.25
546.997	2681.25
547.095	2638.25
547.194	2618.25
547.292	2614.25
547.39	2663.25
547.489	2537.25
547.587	2870.25
547.685	2577.25
547.784	2751.25
547.882	2626.25
547.98	2669.25
548.079	2623.25
548.177	2578.25
548.275	2613.25
548.373	2755.25
548.472	2561.25
548.57	2590.25
548.668	2684.25
548.766	2515.25
548.864	2680.25
548.963	2688.25
549.061	2767.25
549.159	2579.25
549.257	2762.25
549.355	2603.25
549.454	2717.25
549.552	2779.25
549.65	2641.25
549.748	2566.25
549.846	2653.25
549.944	2584.25
550.042	2553.25
550.14	2651.25
550.238	2603.25
550.336	2516.25
550.434	2541.25
550.532	2610.25
550.631	2595.25
550.729	2521.25
550.827	2660.25
550.925	2582.25
551.023	2494.25
551.121	2463.25
551.218	2506.25
551.316	2504.25
551.414	2532.25
551.512	2446.25
551.61	2574.25
551.708	2716.25
551.806	2675.25
551.904	2477.25
552.002	2556.25
552.1	2696.25
552.198	2602.25
552.296	2781.25
552.393	2854.25
552.491	2896.25
552.589	2880.25
552.687	2930.25
552.785	2786.25
552.882	2929.25
552.98	3020.25
553.078	3087.25
553.176	2909.25
553.274	2751.25
553.371	2811.25
553.469	2791.25
553.567	2827.25
553.665	2837.25
553.762	3226.25
553.86	2885.25
553.958	2813.25
554.055	2822.25
554.153	2758.25
554.251	2689.25
554.348	2743.25
554.446	2614.25
554.544	2607.25
554.641	2957.25
554.739	2577.25
554.837	2549.25
554.934	2661.25
555.032	2518.25
555.129	2519.25
555.227	2867.25
555.324	6147.25
555.422	2806.25
555.519	2527.25
555.617	2549.25
555.715	2371.25
555.812	2783.25
555.91	2474.25
556.007	2506.25
556.105	2480.25
556.202	2468.25
556.299	2399.25
556.397	2428.25
556.494	2366.25
556.592	2351.25
556.689	2412.25
556.787	2392.25
556.884	2442.25
556.981	2373.25
557.079	2376.25
557.176	2480.25
557.273	2411.25
557.371	2454.25
557.468	2423.25
557.566	2398.25
557.663	2383.25
557.76	2419.25
557.857	2377.25
557.955	2443.25
558.052	2490.25
558.149	2433.25
558.247	2481.25
558.344	2356.25
558.441	2357.25
558.538	2323.25
558.636	2340.25
558.733	2455.25
558.83	2356.25
558.927	2378.25
559.024	2422.25
559.122	2350.25
559.219	2368.25
559.316	2446.25
559.413	2577.25
559.51	2426.25
559.607	2342.25
559.704	2494.25
559.801	2431.25
559.899	2355.25
559.996	2618.25
560.093	2415.25
560.19	2342.25
560.287	2510.25
560.384	2582.25
560.481	2396.25
560.578	2438.25
560.675	2393.25
560.772	2501.25
560.869	2457.25
560.966	2585.25
561.063	2333.25
561.16	2486.25
561.257	2469.25
561.354	2461.25
561.451	2402.25
561.548	2499.25
561.645	2665.25
561.742	2405.25
561.838	2411.25
561.935	2470.25
562.032	2431.25
562.129	2453.25
562.226	2544.25
562.323	2474.25
562.42	2570.25
562.516	2474.25
562.613	2422.25
562.71	2470.25
562.807	3213.25
562.904	2544.25
563	2537.25
563.097	2515.25
563.194	2555.25
563.291	2502.25
563.387	2489.25
563.484	2589.25
563.581	2561.25
563.678	2453.25
563.774	2962.25
563.871	2547.25
563.968	2588.25
564.064	2602.25
564.161	2608.25
564.258	2566.25
564.354	2727.25
564.451	2727.25
564.548	2689.25
564.644	2729.25
564.741	2707.25
564.837	2690.25
564.934	2727.25
565.031	2771.25
565.127	2806.25
565.224	2871.25
565.32	3046.25
565.417	2891.25
565.513	2979.25
565.61	3064.25
565.706	3171.25
565.803	3144.25
565.899	3164.25
565.996	3345.25
566.092	3251.25
566.189	3301.25
566.285	3500.25
566.382	3614.25
566.478	3809.25
566.574	3963.25
566.671	3815.25
566.767	3847.25
566.864	3827.25
566.96	3968.25
567.056	3818.25
567.153	4134.25
567.249	4083.25
567.345	4154.25
567.442	4285.25
567.538	4362.25
567.634	4300.25
567.731	4456.25
567.827	4543.25
567.923	4363.25
568.019	4238.25
568.116	4006.25
568.212	3885.25
568.308	3814.25
568.404	3672.25
568.501	3597.25
568.597	3465.25
568.693	3265.25
568.789	3903.25
568.885	3125.25
568.982	3127.25
569.078	2950.25
569.174	2967.25
569.27	2869.25
569.366	2961.25
569.462	2846.25
569.558	2725.25
569.655	2731.25
569.751	2742.25
569.847	2619.25
569.943	2606.25
570.039	2598.25
570.135	3058.25
570.231	2626.25
570.327	2685.25
570.423	2643.25
570.519	2608.25
570.615	2588.25
570.711	2727.25
570.807	2640.25
570.903	2590.25
570.999	2679.25
571.095	2638.25
571.191	2513.25
571.287	2627.25
571.383	2542.25
571.479	2502.25
571.574	2546.25
571.67	2400.25
571.766	2554.25
571.862	2359.25
571.958	2343.25
572.054	2369.25
572.15	2305.25
572.246	2289.25
572.341	2304.25
572.437	2249.25
572.533	2333.25
572.629	2238.25
572.725	2235.25
572.82	2188.25
572.916	2281.25
573.012	2184.25
573.108	2318.25
573.203	2131.25
573.299	2076.25
573.395	2054.25
573.49	2031.25
573.586	2086.25
573.682	2088.25
573.778	2297.25
573.873	1980.25
573.969	2017.25
574.065	2152.25
574.16	2066.25
574.256	2010.25
574.351	2164.25
574.447	2081.25
574.543	2000.25
574.638	2107.25
574.734	2153.25
574.829	2252.25
574.925	2042.25
575.02	2086.25
575.116	1984.25
575.212	2014.25
575.307	2152.25
575.403	1968.25
575.498	1959.25
575.594	1958.25
575.689	2009.25
575.784	1956.25
575.88	2018.25
575.975	1987.25
576.071	1894.25
576.166	1873.25
576.262	1948.25
576.357	1894.25
576.452	2097.25
576.548	1947.25
576.643	1832.25
576.739	1912.25
576.834	1930.25
576.929	1887.25
577.025	2448.25
577.12	1831.25
577.215	1762.25
577.311	1811.25
577.406	1888.25
577.501	1962.25
577.597	1747.25
577.692	1918.25
577.787	1922.25
577.882	1750.25
577.978	1816.25
578.073	1776.25
578.168	1654.25
578.263	1670.25
578.358	1728.25
578.454	1665.25
578.549	1596.25
578.644	1665.25
578.739	1749.25
578.834	1677.25
578.929	1646.25
579.025	1709.25
579.12	1690.25
579.215	1910.25
579.31	1872.25
579.405	1568.25
579.5	1738.25
579.595	1661.25
579.69	1639.25
579.785	1654.25
579.88	1559.25
579.975	1671.25
580.07	1531.25
580.165	1655.25
580.26	1750.25
580.355	1592.25
580.45	1612.25
580.545	1630.25
580.64	1610.25
580.735	1682.25
580.83	1663.25
580.925	1554.25
581.02	1465.25
581.115	1483.25
581.21	1545.25
581.305	1475.25
581.4	1504.25
581.495	1588.25
581.589	1492.25
581.684	1429.25
581.779	1593.25
581.874	1571.25
581.969	1625.25
582.064	1519.25
582.158	1534.25
582.253	1437.25
582.348	1522.25
582.443	1487.25
582.537	1432.25
582.632	1638.25
582.727	1478.25
582.822	1439.25
582.916	1343.25
583.011	1434.25
583.106	1467.25
583.201	1413.25
583.295	1455.25
583.39	1414.25
583.485	1331.25
583.579	3247.25
583.674	1587.25
583.769	1599.25
583.863	1385.25
583.958	1431.25
584.052	1340.25
584.147	1361.25
584.242	1368.25
584.336	1348.25
584.431	1526.25
584.525	1360.25
584.62	1472.25
584.714	1439.25
584.809	1400.25
584.903	1436.25
584.998	1359.25
585.092	1246.25
585.187	1362.25
585.281	1288.25
585.376	1339.25
585.47	1413.25
585.565	1300.25
585.659	1251.25
585.754	1387.25
585.848	1351.25
585.942	1303.25
586.037	1294.25
586.131	3473.25
586.226	1405.25
586.32	1362.25
586.414	1248.25
586.509	1373.25
586.603	1281.25
586.697	1304.25
586.792	1201.25
586.886	1198.25
586.98	1401.25
587.075	1239.25
587.169	1225.25
587.263	1463.25
587.357	1305.25
587.452	1206.25
587.546	1335.25
587.64	1224.25
587.734	1271.25
587.829	1280.25
587.923	1347.25
588.017	1277.25
588.111	1243.25
588.205	1343.25
588.3	1224.25
588.394	1167.25
588.488	1193.25
588.582	1290.25
588.676	1310.25
588.77	1481.25
588.864	2021.25
588.958	1943.25
589.052	1647.25
589.147	1546.25
589.241	1355.25
589.335	1341.25
589.429	1654.25
589.523	1778.25
589.617	1642.25
589.711	1455.25
589.805	1344.25
589.899	1308.25
589.993	1221.25
590.087	1181.25
590.181	1143.25
590.275	1246.25
590.369	1191.25
590.462	1155.25
590.556	1150.25
590.65	1175.25
590.744	1171.25
590.838	1150.25
590.932	1251.25
591.026	1250.25
591.12	1304.25
591.214	1171.25
591.307	1241.25
591.401	1228.25
591.495	1263.25
591.589	1281.25
591.683	1243.25
591.777	1242.25
591.87	1615.25
591.964	1308.25
592.058	1210.25
592.152	1359.25
592.245	1267.25
592.339	1322.25
592.433	1435.25
592.527	1394.25
592.62	1263.25
592.714	1341.25
592.808	1431.25
592.901	1377.25
592.995	1296.25
593.089	1537.25
593.182	1414.25
593.276	1399.25
593.37	1356.25
593.463	1286.25
593.557	1341.25
593.65	1404.25
593.744	1391.25
593.837	1411.25
593.931	1370.25
594.025	4832.25
594.118	1627.25
594.212	1302.25
594.305	1363.25
594.399	1345.25
594.492	1635.25
594.586	1328.25
594.679	1224.25
594.773	1273.25
594.866	1327.25
594.96	1269.25
595.053	1120.25
595.146	1232.25
595.24	1191.25
595.333	1081.25
595.427	1073.25
595.52	1148.25
595.614	1262.25
595.707	1125.25
595.8	1093.25
595.894	1058.25
595.987	1036.25
596.08	1044.25
596.174	1371.25
596.267	1146.25
596.36	1167.25
596.454	1230.25
596.547	1085.25
596.64	1002.25
596.733	1005.25
596.827	1055.25
596.92	1007.25
597.013	968.25
597.106	913.25
597.2	953.25
597.293	944.25
597.386	1183.25
597.479	1026.25
597.572	1012.25
597.666	959.25
597.759	940.25
597.852	995.25
597.945	955.25
598.038	901.25
598.131	925.25
598.224	952.25
598.317	953.25
598.411	944.25
598.504	950.25
598.597	979.25
598.69	889.25
598.783	923.25
598.876	1014.25
598.969	931.25
599.062	886.25
599.155	993.25
599.248	894.25
599.341	920.25
599.434	905.25
599.527	987.25
599.62	880.25
599.713	871.25
599.806	909.25
599.899	1009.25
599.991	898.25
600.084	1156.25
600.177	828.25
600.27	881.25
600.363	1079.25
600.456	896.25
600.549	937.25
600.642	891.25
600.734	835.25
600.827	872.25
600.92	1073.25
601.013	893.25
601.106	943.25
601.199	840.25
601.291	853.25
601.384	901.25
601.477	1059.25
601.57	1019.25
601.662	874.25
601.755	864.25
601.848	934.25
601.94	794.25
602.033	950.25
602.126	944.25
602.219	866.25
602.311	938.25
602.404	880.25
602.497	871.25
602.589	794.25
602.682	905.25
602.774	952.25
602.867	875.25
602.96	841.25
603.052	908.25
603.145	832.25
603.237	867.25
603.33	919.25
603.422	990.25
603.515	855.25
603.608	877.25
603.7	904.25
603.793	875.25
603.885	891.25
603.978	876.25
604.07	803.25
604.163	803.25
604.255	942.25
604.347	759.25
604.44	752.25
604.532	882.25
604.625	855.25
604.717	790.25
604.81	895.25
604.902	831.25
604.994	767.25
605.087	828.25
605.179	844.25
605.271	878.25
605.364	854.25
605.456	944.25
605.548	811.25
605.641	802.25
605.733	844.25
605.825	827.25
605.918	790.25
606.01	959.25
606.102	1220.25
606.194	827.25
606.287	966.25
606.379	818.25
606.471	851.25
606.563	832.25
606.655	906.25
606.748	850.25
606.84	777.25
606.932	908.25
607.024	784.25
607.116	788.25
607.208	853.25
607.301	888.25
607.393	768.25
607.485	809.25
607.577	902.25
607.669	896.25
607.761	905.25
607.853	1105.25
607.945	748.25
608.037	727.25
608.129	811.25
608.221	772.25
608.313	752.25
608.405	868.25
608.497	839.25
608.589	763.25
608.681	774.25
608.773	889.25
608.865	814.25
608.957	789.25
609.049	849.25
609.141	885.25
609.233	748.25
609.325	782.25
609.417	755.25
609.509	840.25
609.601	943.25
609.693	895.25
609.784	790.25
609.876	818.25
609.968	839.25
610.06	2738.25
610.152	1012.25
610.244	1027.25
610.335	806.25
610.427	781.25
610.519	812.25
610.611	811.25
610.702	737.25
610.794	806.25
610.886	849.25
610.978	770.25
611.069	1161.25
611.161	821.25
611.253	787.25
611.344	719.25
611.436	736.25
611.528	776.25
611.62	668.25
611.711	733.25
611.803	664.25
611.894	625.25
611.986	650.25
612.078	701.25
612.169	638.25
612.261	676.25
612.352	654.25
612.444	580.25
612.536	723.25
612.627	646.25
612.719	538.25
612.81	538.25
612.902	576.25
612.993	553.25
613.085	577.25
613.176	528.25
613.268	561.25
613.359	534.25
613.451	588.25
613.542	511.25
613.634	434.25
613.725	555.25
613.816	615.25
613.908	489.25
613.999	456.25
614.091	418.25
614.182	408.25
614.273	451.25
614.365	413.25
614.456	356.25
614.547	413.25
614.639	369.25
614.73	371.25
614.821	424.25
614.913	330.25
615.004	363.25
615.095	277.25
615.187	294.25
