Data from sinsal_HRC06701__26__87.txt Node

Date: Thu Apr 18 01:41:29 CDT 2024
User: Estudiantes 2
Spectrometer: HR+C0670
Trigger mode: 4
Integration Time (sec): 1.000000E0
Scans to average: 1
Electric dark correction enabled: true
Nonlinearity correction enabled: false
Boxcar width: 0
XAxis mode: Wavelengths
Number of Pixels in Spectrum: 2048
>>>>>Begin Spectral Data<<<<<
407.81	-95.44
407.921	-95.44
408.032	-95.44
408.143	-112.44
408.254	-143.44
408.365	64.56
408.476	225.56
408.587	14.56
408.699	-6.44
408.81	11.56
408.921	-62.44
409.032	-48.44
409.143	70.56
409.254	20.56
409.365	40.56
409.476	0.56
409.587	-11.44
409.698	31.56
409.809	89.56
409.92	-6.44
410.031	-59.44
410.142	33.56
410.253	34.56
410.364	17.56
410.475	388.56
410.585	2048.56
410.696	2112.56
410.807	2015.56
410.918	2184.56
411.029	2128.56
411.14	2179.56
411.251	2133.56
411.362	2185.56
411.472	2195.56
411.583	2193.56
411.694	2299.56
411.805	2208.56
411.916	2281.56
412.026	2374.56
412.137	2263.56
412.248	2226.56
412.359	2271.56
412.47	2085.56
412.58	2084.56
412.691	2241.56
412.802	2075.56
412.912	2149.56
413.023	2144.56
413.134	2155.56
413.245	2161.56
413.355	2173.56
413.466	2187.56
413.577	2179.56
413.687	2206.56
413.798	2101.56
413.909	2204.56
414.019	2186.56
414.13	2239.56
414.24	2159.56
414.351	2209.56
414.462	2361.56
414.572	2193.56
414.683	2196.56
414.793	2177.56
414.904	2493.56
415.014	2174.56
415.125	2131.56
415.235	2254.56
415.346	2231.56
415.456	2249.56
415.567	2237.56
415.677	2137.56
415.788	2212.56
415.898	2158.56
416.009	2137.56
416.119	2186.56
416.23	2086.56
416.34	2186.56
416.45	2156.56
416.561	2585.56
416.671	2290.56
416.782	2101.56
416.892	2144.56
417.002	2302.56
417.113	2282.56
417.223	2190.56
417.333	2238.56
417.444	2216.56
417.554	2299.56
417.664	2322.56
417.775	2235.56
417.885	2237.56
417.995	2233.56
418.106	2527.56
418.216	2330.56
418.326	2437.56
418.436	2488.56
418.547	2398.56
418.657	2327.56
418.767	2470.56
418.877	2438.56
418.987	2530.56
419.098	2543.56
419.208	2521.56
419.318	2584.56
419.428	2503.56
419.538	2503.56
419.648	2574.56
419.759	2540.56
419.869	2571.56
419.979	2442.56
420.089	2454.56
420.199	2462.56
420.309	2455.56
420.419	2472.56
420.529	2549.56
420.639	2716.56
420.749	2512.56
420.859	2526.56
420.969	2519.56
421.079	2714.56
421.189	2557.56
421.299	2569.56
421.409	2490.56
421.519	2552.56
421.629	2724.56
421.739	2569.56
421.849	2563.56
421.959	2603.56
422.069	2679.56
422.179	2574.56
422.289	2622.56
422.399	2755.56
422.509	2752.56
422.619	4537.56
422.729	2960.56
422.838	2749.56
422.948	2811.56
423.058	2832.56
423.168	2765.56
423.278	2804.56
423.388	2938.56
423.498	2937.56
423.607	2912.56
423.717	3199.56
423.827	3141.56
423.937	2898.56
424.046	3051.56
424.156	3144.56
424.266	2976.56
424.376	3202.56
424.485	3191.56
424.595	3016.56
424.705	3061.56
424.815	3137.56
424.924	3463.56
425.034	3169.56
425.144	3141.56
425.253	3057.56
425.363	3180.56
425.473	3255.56
425.582	3114.56
425.692	3209.56
425.801	3163.56
425.911	3375.56
426.021	3292.56
426.13	3398.56
426.24	3501.56
426.349	3446.56
426.459	3323.56
426.568	3348.56
426.678	3438.56
426.787	3346.56
426.897	3328.56
427.006	3419.56
427.116	3449.56
427.225	3417.56
427.335	3505.56
427.444	3478.56
427.554	3496.56
427.663	3526.56
427.773	3493.56
427.882	3631.56
427.992	3552.56
428.101	3559.56
428.21	3547.56
428.32	3678.56
428.429	3592.56
428.539	3837.56
428.648	3625.56
428.757	3708.56
428.867	3671.56
428.976	3833.56
429.085	3689.56
429.195	3697.56
429.304	3735.56
429.413	3874.56
429.523	3840.56
429.632	3750.56
429.741	3776.56
429.85	3826.56
429.96	3835.56
430.069	3865.56
430.178	3983.56
430.287	4158.56
430.397	3860.56
430.506	3947.56
430.615	3901.56
430.724	4017.56
430.833	4015.56
430.943	4031.56
431.052	4088.56
431.161	4026.56
431.27	4145.56
431.379	4062.56
431.488	4365.56
431.597	4288.56
431.706	4346.56
431.816	4288.56
431.925	4301.56
432.034	4251.56
432.143	4251.56
432.252	4264.56
432.361	4258.56
432.47	4257.56
432.579	4274.56
432.688	4334.56
432.797	4273.56
432.906	4258.56
433.015	4322.56
433.124	4600.56
433.233	4292.56
433.342	4380.56
433.451	4231.56
433.56	4347.56
433.669	4360.56
433.778	4302.56
433.886	4361.56
433.995	4449.56
434.104	4555.56
434.213	4399.56
434.322	4405.56
434.431	4644.56
434.54	4669.56
434.649	4802.56
434.757	4834.56
434.866	4702.56
434.975	4717.56
435.084	4697.56
435.193	4618.56
435.301	4679.56
435.41	4648.56
435.519	4629.56
435.628	4235.56
435.737	4241.56
435.845	4143.56
435.954	4103.56
436.063	4103.56
436.171	4198.56
436.28	4115.56
436.389	4218.56
436.498	4145.56
436.606	4055.56
436.715	4212.56
436.823	4034.56
436.932	3896.56
437.041	3885.56
437.149	3893.56
437.258	3873.56
437.367	3709.56
437.475	3843.56
437.584	4003.56
437.692	3711.56
437.801	5046.56
437.91	3897.56
438.018	3760.56
438.127	3694.56
438.235	3796.56
438.344	3759.56
438.452	3763.56
438.561	3621.56
438.669	3865.56
438.778	3623.56
438.886	3614.56
438.995	3661.56
439.103	3678.56
439.212	3644.56
439.32	3750.56
439.428	3681.56
439.537	3743.56
439.645	3814.56
439.754	3671.56
439.862	3670.56
439.97	3824.56
440.079	3810.56
440.187	3575.56
440.295	3867.56
440.404	3810.56
440.512	3775.56
440.62	3773.56
440.729	3899.56
440.837	3889.56
440.945	4502.56
441.054	3961.56
441.162	3910.56
441.27	4106.56
441.378	4089.56
441.487	4160.56
441.595	4439.56
441.703	4226.56
441.811	4119.56
441.92	4026.56
442.028	3829.56
442.136	4065.56
442.244	3987.56
442.352	3968.56
442.461	3908.56
442.569	3790.56
442.677	3919.56
442.785	3953.56
442.893	3945.56
443.001	3834.56
443.109	3858.56
443.217	4007.56
443.325	3893.56
443.434	4423.56
443.542	4223.56
443.65	4000.56
443.758	4164.56
443.866	4081.56
443.974	4305.56
444.082	4208.56
444.19	4367.56
444.298	4298.56
444.406	4442.56
444.514	4549.56
444.622	4622.56
444.73	4593.56
444.838	4518.56
444.946	4533.56
445.054	4347.56
445.161	4314.56
445.269	4238.56
445.377	4212.56
445.485	4210.56
445.593	4211.56
445.701	4291.56
445.809	4079.56
445.917	4060.56
446.025	4054.56
446.132	4134.56
446.24	4095.56
446.348	4066.56
446.456	3966.56
446.564	4024.56
446.671	4008.56
446.779	3943.56
446.887	3976.56
446.995	4025.56
447.102	3941.56
447.21	3962.56
447.318	3956.56
447.426	3930.56
447.533	4192.56
447.641	4964.56
447.749	4026.56
447.856	3873.56
447.964	4021.56
448.072	4202.56
448.179	3857.56
448.287	3967.56
448.395	4041.56
448.502	3918.56
448.61	3991.56
448.718	3921.56
448.825	4036.56
448.933	3984.56
449.04	4033.56
449.148	4106.56
449.256	4129.56
449.363	4056.56
449.471	4171.56
449.578	4206.56
449.686	4086.56
449.793	4261.56
449.901	4189.56
450.008	4255.56
450.116	4329.56
450.223	4225.56
450.331	4413.56
450.438	4423.56
450.546	4433.56
450.653	4475.56
450.76	4552.56
450.868	4626.56
450.975	4704.56
451.083	4530.56
451.19	4675.56
451.297	4535.56
451.405	4706.56
451.512	4701.56
451.619	4848.56
451.727	4814.56
451.834	4742.56
451.941	4754.56
452.049	4678.56
452.156	4748.56
452.263	4829.56
452.371	4811.56
452.478	4760.56
452.585	4841.56
452.692	4793.56
452.8	4897.56
452.907	5019.56
453.014	4832.56
453.121	4993.56
453.229	4919.56
453.336	4958.56
453.443	5031.56
453.55	4925.56
453.657	4977.56
453.765	5093.56
453.872	5021.56
453.979	5131.56
454.086	5086.56
454.193	5149.56
454.3	5095.56
454.407	5166.56
454.514	5239.56
454.621	5147.56
454.729	5070.56
454.836	5222.56
454.943	5179.56
455.05	5217.56
455.157	5379.56
455.264	5195.56
455.371	5315.56
455.478	5281.56
455.585	6411.56
455.692	5434.56
455.799	5520.56
455.906	5338.56
456.013	5418.56
456.12	5428.56
456.227	5343.56
456.334	5478.56
456.44	5618.56
456.547	5543.56
456.654	5534.56
456.761	5576.56
456.868	5648.56
456.975	5700.56
457.082	5637.56
457.189	5537.56
457.296	5664.56
457.402	5661.56
457.509	5478.56
457.616	5682.56
457.723	5969.56
457.83	5838.56
457.936	5796.56
458.043	6255.56
458.15	6019.56
458.257	6107.56
458.363	6141.56
458.47	6164.56
458.577	6359.56
458.684	6239.56
458.79	6508.56
458.897	6465.56
459.004	6650.56
459.11	6659.56
459.217	6779.56
459.324	6802.56
459.43	6957.56
459.537	7127.56
459.644	7059.56
459.75	7109.56
459.857	7571.56
459.964	7210.56
460.07	7229.56
460.177	7395.56
460.283	7397.56
460.39	7541.56
460.496	7389.56
460.603	7408.56
460.71	7373.56
460.816	7377.56
460.923	7435.56
461.029	7298.56
461.136	7496.56
461.242	7429.56
461.349	7462.56
461.455	7558.56
461.562	7703.56
461.668	7638.56
461.774	7563.56
461.881	7622.56
461.987	7700.56
462.094	7917.56
462.2	8014.56
462.307	7895.56
462.413	7883.56
462.519	8091.56
462.626	8499.56
462.732	8531.56
462.838	8787.56
462.945	8999.56
463.051	8867.56
463.157	8922.56
463.264	8582.56
463.37	8559.56
463.476	8279.56
463.583	8361.56
463.689	8273.56
463.795	8245.56
463.901	8115.56
464.008	8319.56
464.114	8191.56
464.22	8221.56
464.326	8160.56
464.433	7772.56
464.539	7909.56
464.645	7685.56
464.751	7696.56
464.857	7434.56
464.963	7139.56
465.07	7159.56
465.176	6807.56
465.282	6657.56
465.388	6638.56
465.494	6383.56
465.6	6289.56
465.706	6126.56
465.812	6010.56
465.918	6058.56
466.024	5917.56
466.131	5817.56
466.237	5576.56
466.343	5552.56
466.449	5579.56
466.555	5413.56
466.661	5369.56
466.767	5371.56
466.873	5299.56
466.979	5443.56
467.085	5297.56
467.191	5338.56
467.296	5291.56
467.402	5246.56
467.508	5222.56
467.614	5371.56
467.72	5128.56
467.826	5146.56
467.932	4945.56
468.038	4903.56
468.144	4891.56
468.25	4802.56
468.355	4786.56
468.461	4862.56
468.567	4886.56
468.673	4808.56
468.779	4796.56
468.885	4727.56
468.99	4677.56
469.096	4874.56
469.202	4804.56
469.308	4757.56
469.413	4886.56
469.519	4850.56
469.625	4866.56
469.731	4929.56
469.836	4927.56
469.942	4968.56
470.048	4859.56
470.153	4830.56
470.259	4827.56
470.365	4997.56
470.47	4885.56
470.576	4814.56
470.682	4728.56
470.787	4795.56
470.893	4624.56
470.999	4629.56
471.104	4704.56
471.21	4572.56
471.315	4405.56
471.421	4455.56
471.527	4639.56
471.632	4431.56
471.738	4337.56
471.843	4299.56
471.949	4272.56
472.054	4260.56
472.16	4261.56
472.265	4244.56
472.371	4211.56
472.476	4203.56
472.582	4252.56
472.687	4163.56
472.793	4132.56
472.898	4229.56
473.003	4037.56
473.109	3978.56
473.214	4060.56
473.32	4057.56
473.425	4017.56
473.53	4104.56
473.636	4004.56
473.741	3968.56
473.847	4035.56
473.952	4017.56
474.057	3976.56
474.163	4019.56
474.268	4095.56
474.373	4010.56
474.478	3861.56
474.584	4005.56
474.689	3991.56
474.794	4004.56
474.9	4231.56
475.005	3932.56
475.11	4121.56
475.215	3977.56
475.321	4014.56
475.426	4221.56
475.531	4066.56
475.636	4014.56
475.741	3936.56
475.846	4090.56
475.952	4230.56
476.057	4000.56
476.162	4181.56
476.267	4306.56
476.372	4284.56
476.477	4060.56
476.582	4231.56
476.687	4084.56
476.793	4117.56
476.898	4187.56
477.003	4241.56
477.108	4181.56
477.213	4228.56
477.318	4181.56
477.423	4358.56
477.528	4356.56
477.633	4450.56
477.738	4444.56
477.843	4343.56
477.948	4435.56
478.053	4419.56
478.158	4450.56
478.263	4490.56
478.368	4580.56
478.473	4688.56
478.578	4735.56
478.682	4575.56
478.787	4646.56
478.892	4603.56
478.997	4705.56
479.102	4689.56
479.207	4760.56
479.312	4851.56
479.417	4722.56
479.521	4721.56
479.626	4861.56
479.731	4774.56
479.836	4819.56
479.941	5123.56
480.045	5093.56
480.15	5089.56
480.255	5090.56
480.36	5066.56
480.465	5023.56
480.569	5191.56
480.674	5038.56
480.779	4902.56
480.883	4934.56
480.988	5061.56
481.093	4977.56
481.197	4924.56
481.302	4878.56
481.407	4951.56
481.511	6460.56
481.616	4992.56
481.721	5063.56
481.825	4950.56
481.93	4936.56
482.035	4946.56
482.139	5029.56
482.244	5019.56
482.348	4977.56
482.453	4931.56
482.557	5038.56
482.662	5028.56
482.767	4975.56
482.871	5032.56
482.976	5074.56
483.08	5215.56
483.185	5344.56
483.289	5042.56
483.394	5259.56
483.498	5287.56
483.603	5165.56
483.707	5286.56
483.811	5439.56
483.916	5319.56
484.02	5307.56
484.125	5610.56
484.229	5399.56
484.333	5620.56
484.438	5533.56
484.542	5507.56
484.647	5570.56
484.751	5715.56
484.855	5705.56
484.96	5688.56
485.064	5775.56
485.168	5813.56
485.273	5772.56
485.377	5841.56
485.481	6033.56
485.585	5993.56
485.69	6022.56
485.794	6022.56
485.898	6096.56
486.002	6002.56
486.107	6191.56
486.211	6186.56
486.315	6163.56
486.419	6216.56
486.524	6139.56
486.628	6182.56
486.732	6126.56
486.836	6136.56
486.94	6180.56
487.044	6233.56
487.148	6141.56
487.253	5972.56
487.357	6163.56
487.461	6239.56
487.565	6109.56
487.669	6132.56
487.773	6179.56
487.877	6193.56
487.981	6192.56
488.085	6139.56
488.189	6120.56
488.293	6271.56
488.397	6611.56
488.501	6215.56
488.605	6122.56
488.709	5998.56
488.813	6099.56
488.917	6012.56
489.021	6075.56
489.125	6449.56
489.229	6132.56
489.333	6331.56
489.437	6193.56
489.541	6302.56
489.645	6098.56
489.749	6180.56
489.853	6327.56
489.956	6207.56
490.06	6208.56
490.164	6255.56
490.268	6154.56
490.372	6225.56
490.476	6308.56
490.579	6297.56
490.683	6794.56
490.787	6315.56
490.891	6235.56
490.995	6217.56
491.098	6198.56
491.202	6204.56
491.306	6371.56
491.41	6266.56
491.513	6278.56
491.617	6182.56
491.721	6368.56
491.824	6328.56
491.928	6177.56
492.032	6409.56
492.136	6251.56
492.239	6158.56
492.343	6214.56
492.446	6610.56
492.55	6299.56
492.654	6172.56
492.757	6180.56
492.861	6361.56
492.965	6185.56
493.068	6233.56
493.172	6408.56
493.275	6221.56
493.379	6333.56
493.482	6390.56
493.586	6335.56
493.689	6443.56
493.793	6334.56
493.896	6358.56
494	6423.56
494.103	6369.56
494.207	6622.56
494.31	6585.56
494.414	6447.56
494.517	6377.56
494.621	6197.56
494.724	6277.56
494.828	6206.56
494.931	6154.56
495.034	6194.56
495.138	6301.56
495.241	6100.56
495.345	6765.56
495.448	6288.56
495.551	6197.56
495.655	6083.56
495.758	6077.56
495.861	6183.56
495.965	6161.56
496.068	6190.56
496.171	6299.56
496.274	6249.56
496.378	6205.56
496.481	6253.56
496.584	6234.56
496.687	6360.56
496.791	6347.56
496.894	6407.56
496.997	6269.56
497.1	6339.56
497.204	6440.56
497.307	6440.56
497.41	6633.56
497.513	6854.56
497.616	6517.56
497.719	6672.56
497.823	6663.56
497.926	6770.56
498.029	6922.56
498.132	7032.56
498.235	7010.56
498.338	7325.56
498.441	7510.56
498.544	7622.56
498.647	7783.56
498.75	8045.56
498.853	8368.56
498.956	8298.56
499.059	8659.56
499.163	8891.56
499.266	8937.56
499.369	9229.56
499.471	9641.56
499.574	9981.56
499.677	10343.56
499.78	10743.56
499.883	11167.56
499.986	11627.56
500.089	11848.56
500.192	12250.56
500.295	12314.56
500.398	12250.56
500.501	12106.56
500.604	11828.56
500.707	11354.56
500.809	11040.56
500.912	10739.56
501.015	10287.56
501.118	9854.56
501.221	9540.56
501.324	9024.56
501.426	8777.56
501.529	8454.56
501.632	8074.56
501.735	7857.56
501.837	7714.56
501.94	7382.56
502.043	7170.56
502.146	7115.56
502.248	6895.56
502.351	6694.56
502.454	6706.56
502.557	6527.56
502.659	6426.56
502.762	6334.56
502.865	6283.56
502.967	5915.56
503.07	5977.56
503.173	5935.56
503.275	5803.56
503.378	5793.56
503.48	5648.56
503.583	5659.56
503.686	5645.56
503.788	5884.56
503.891	5640.56
503.993	5733.56
504.096	5512.56
504.198	5581.56
504.301	5512.56
504.403	5540.56
504.506	5686.56
504.608	5379.56
504.711	5277.56
504.813	5294.56
504.916	5201.56
505.018	5024.56
505.121	4934.56
505.223	4966.56
505.326	4753.56
505.428	4842.56
505.531	4738.56
505.633	4664.56
505.735	4534.56
505.838	4663.56
505.94	4534.56
506.042	4444.56
506.145	4495.56
506.247	4577.56
506.35	4339.56
506.452	4500.56
506.554	4504.56
506.656	4384.56
506.759	4333.56
506.861	4361.56
506.963	4261.56
507.066	4410.56
507.168	4463.56
507.27	4283.56
507.372	4180.56
507.475	4257.56
507.577	4183.56
507.679	4192.56
507.781	4030.56
507.883	4187.56
507.986	4056.56
508.088	4111.56
508.19	4163.56
508.292	4073.56
508.394	3979.56
508.496	4063.56
508.598	4039.56
508.701	4017.56
508.803	4081.56
508.905	3901.56
509.007	3981.56
509.109	4087.56
509.211	3963.56
509.313	3929.56
509.415	3942.56
509.517	3924.56
509.619	3880.56
509.721	3988.56
509.823	3982.56
509.925	3988.56
510.027	3858.56
510.129	3934.56
510.231	3895.56
510.333	3838.56
510.435	3896.56
510.537	3916.56
510.639	3939.56
510.741	3853.56
510.843	3829.56
510.945	3830.56
511.047	3895.56
511.148	3883.56
511.25	3901.56
511.352	3895.56
511.454	3826.56
511.556	3900.56
511.658	3911.56
511.76	3984.56
511.861	4094.56
511.963	3854.56
512.065	3857.56
512.167	3841.56
512.268	3995.56
512.37	3946.56
512.472	3891.56
512.574	3925.56
512.676	3944.56
512.777	3917.56
512.879	3897.56
512.981	3826.56
513.082	3884.56
513.184	3878.56
513.286	4347.56
513.387	4039.56
513.489	4128.56
513.591	3993.56
513.692	4048.56
513.794	4045.56
513.896	3975.56
513.997	3934.56
514.099	4006.56
514.2	3991.56
514.302	4083.56
514.404	4087.56
514.505	4030.56
514.607	4123.56
514.708	4148.56
514.81	4155.56
514.911	4054.56
515.013	4199.56
515.114	4244.56
515.216	4203.56
515.317	4218.56
515.419	4262.56
515.52	4326.56
515.622	4241.56
515.723	4406.56
515.825	4498.56
515.926	4473.56
516.027	4415.56
516.129	4430.56
516.23	4550.56
516.332	4580.56
516.433	4640.56
516.534	4717.56
516.636	4748.56
516.737	4903.56
516.838	5815.56
516.94	5095.56
517.041	5184.56
517.142	5289.56
517.244	5365.56
517.345	5448.56
517.446	5476.56
517.547	5494.56
517.649	5438.56
517.75	5524.56
517.851	5386.56
517.952	5611.56
518.054	5432.56
518.155	5394.56
518.256	5246.56
518.357	5303.56
518.458	5056.56
518.56	5063.56
518.661	5137.56
518.762	4954.56
518.863	5142.56
518.964	4993.56
519.065	4825.56
519.166	4811.56
519.268	4827.56
519.369	4970.56
519.47	4704.56
519.571	4681.56
519.672	4619.56
519.773	4561.56
519.874	4660.56
519.975	4669.56
520.076	4582.56
520.177	4647.56
520.278	4633.56
520.379	4569.56
520.48	4463.56
520.581	4557.56
520.682	4532.56
520.783	4551.56
520.884	4511.56
520.985	4586.56
521.086	4466.56
521.187	4541.56
521.288	4510.56
521.389	4490.56
521.489	4438.56
521.59	4474.56
521.691	4367.56
521.792	4455.56
521.893	4458.56
521.994	4555.56
522.095	4487.56
522.195	4560.56
522.296	4617.56
522.397	4463.56
522.498	4465.56
522.599	4419.56
522.699	4451.56
522.8	4405.56
522.901	4559.56
523.002	4476.56
523.102	4634.56
523.203	4574.56
523.304	4591.56
523.405	4434.56
523.505	4559.56
523.606	4666.56
523.707	4475.56
523.807	4547.56
523.908	4601.56
524.009	4552.56
524.109	4600.56
524.21	4483.56
524.31	4571.56
524.411	4585.56
524.512	4642.56
524.612	4562.56
524.713	4724.56
524.813	4507.56
524.914	4877.56
525.014	9287.56
525.115	4840.56
525.216	4549.56
525.316	4526.56
525.417	4520.56
525.517	4531.56
525.618	4452.56
525.718	4465.56
525.819	4474.56
525.919	4492.56
526.019	4452.56
526.12	4452.56
526.22	4399.56
526.321	4371.56
526.421	4450.56
526.522	4547.56
526.622	4330.56
526.722	4345.56
526.823	4386.56
526.923	4330.56
527.023	4463.56
527.124	4361.56
527.224	4473.56
527.324	4239.56
527.425	4409.56
527.525	4317.56
527.625	4364.56
527.726	4399.56
527.826	4532.56
527.926	4410.56
528.026	4521.56
528.127	4513.56
528.227	4398.56
528.327	4545.56
528.427	4585.56
528.528	4548.56
528.628	4551.56
528.728	4523.56
528.828	4583.56
528.928	4516.56
529.029	4478.56
529.129	4517.56
529.229	4529.56
529.329	4458.56
529.429	4577.56
529.529	4500.56
529.629	4565.56
529.729	4542.56
529.829	4520.56
529.93	4218.56
530.03	4290.56
530.13	4226.56
530.23	4277.56
530.33	4275.56
530.43	4256.56
530.53	4309.56
530.63	4183.56
530.73	4164.56
530.83	4093.56
530.93	4145.56
531.03	4208.56
531.13	4243.56
531.23	4084.56
531.33	4253.56
531.429	4182.56
531.529	4121.56
531.629	4169.56
531.729	4124.56
531.829	4037.56
531.929	4175.56
532.029	4146.56
532.129	4105.56
532.229	4105.56
532.328	4223.56
532.428	4091.56
532.528	4001.56
532.628	4091.56
532.728	4073.56
532.827	4022.56
532.927	4213.56
533.027	4100.56
533.127	4161.56
533.227	4110.56
533.326	4201.56
533.426	4052.56
533.526	4144.56
533.625	4263.56
533.725	4309.56
533.825	4044.56
533.924	4030.56
534.024	3811.56
534.124	3900.56
534.223	3958.56
534.323	4250.56
534.423	3865.56
534.522	3845.56
534.622	3837.56
534.722	3815.56
534.821	3936.56
534.921	3898.56
535.02	3743.56
535.12	3837.56
535.219	3912.56
535.319	3925.56
535.419	3825.56
535.518	3769.56
535.618	3771.56
535.717	3789.56
535.817	3689.56
535.916	3623.56
536.016	3642.56
536.115	3555.56
536.215	3604.56
536.314	3463.56
536.413	3463.56
536.513	3520.56
536.612	3476.56
536.712	3369.56
536.811	3473.56
536.91	3384.56
537.01	3369.56
537.109	3519.56
537.209	3448.56
537.308	3365.56
537.407	3371.56
537.507	3485.56
537.606	3380.56
537.705	3388.56
537.805	3458.56
537.904	3229.56
538.003	3339.56
538.102	3441.56
538.202	3457.56
538.301	3446.56
538.4	3496.56
538.499	3447.56
538.599	3463.56
538.698	3624.56
538.797	3455.56
538.896	3497.56
538.995	3493.56
539.095	3470.56
539.194	3673.56
539.293	3385.56
539.392	3375.56
539.491	3295.56
539.59	3278.56
539.689	3461.56
539.789	3231.56
539.888	3140.56
539.987	3118.56
540.086	3265.56
540.185	3211.56
540.284	3329.56
540.383	3265.56
540.482	3292.56
540.581	3226.56
540.68	3314.56
540.779	3311.56
540.878	3269.56
540.977	3466.56
541.076	3284.56
541.175	3313.56
541.274	3504.56
541.373	3525.56
541.472	3352.56
541.571	3302.56
541.67	4420.56
541.769	3407.56
541.868	3306.56
541.966	3362.56
542.065	3187.56
542.164	3268.56
542.263	3263.56
542.362	3167.56
542.461	3243.56
542.56	3255.56
542.658	3252.56
542.757	3154.56
542.856	3061.56
542.955	3129.56
543.054	3028.56
543.152	3184.56
543.251	3180.56
543.35	3269.56
543.449	3194.56
543.547	3165.56
543.646	3055.56
543.745	3171.56
543.843	3276.56
543.942	3252.56
544.041	3133.56
544.14	3251.56
544.238	3282.56
544.337	3313.56
544.436	3243.56
544.534	3371.56
544.633	3286.56
544.731	3297.56
544.83	3311.56
544.929	3247.56
545.027	3338.56
545.126	3272.56
545.224	3344.56
545.323	3192.56
545.421	3348.56
545.52	3269.56
545.619	3233.56
545.717	3216.56
545.816	3352.56
545.914	3298.56
546.013	3432.56
546.111	3414.56
546.209	3227.56
546.308	3239.56
546.406	3248.56
546.505	3394.56
546.603	3302.56
546.702	3227.56
546.8	3229.56
546.899	3136.56
546.997	3278.56
547.095	3346.56
547.194	3297.56
547.292	3302.56
547.39	3393.56
547.489	3188.56
547.587	3444.56
547.685	3282.56
547.784	3432.56
547.882	3259.56
547.98	3205.56
548.079	3271.56
548.177	3182.56
548.275	3193.56
548.373	3433.56
548.472	3212.56
548.57	3189.56
548.668	3371.56
548.766	3151.56
548.864	3307.56
548.963	3305.56
549.061	3305.56
549.159	3269.56
549.257	3392.56
549.355	3233.56
549.454	3126.56
549.552	3275.56
549.65	3362.56
549.748	3193.56
549.846	3181.56
549.944	3212.56
550.042	3197.56
550.14	3243.56
550.238	3315.56
550.336	3134.56
550.434	3130.56
550.532	3159.56
550.631	3254.56
550.729	3198.56
550.827	3260.56
550.925	3165.56
551.023	3135.56
551.121	3114.56
551.218	3139.56
551.316	2999.56
551.414	3035.56
551.512	3045.56
551.61	2957.56
551.708	3151.56
551.806	3174.56
551.904	3061.56
552.002	3121.56
552.1	3165.56
552.198	3235.56
552.296	3343.56
552.393	3406.56
552.491	3508.56
552.589	3446.56
552.687	3447.56
552.785	3483.56
552.882	3570.56
552.98	3582.56
553.078	3551.56
553.176	3435.56
553.274	3362.56
553.371	3455.56
553.469	3454.56
553.567	3391.56
553.665	3312.56
553.762	3733.56
553.86	3338.56
553.958	3365.56
554.055	3406.56
554.153	3337.56
554.251	3202.56
554.348	3355.56
554.446	3152.56
554.544	3240.56
554.641	3465.56
554.739	3224.56
554.837	3211.56
554.934	3095.56
555.032	3166.56
555.129	3079.56
555.227	3491.56
555.324	7012.56
555.422	3398.56
555.519	3050.56
555.617	3019.56
555.715	2940.56
555.812	4419.56
555.91	3009.56
556.007	3029.56
556.105	3008.56
556.202	3023.56
556.299	2925.56
556.397	2897.56
556.494	3021.56
556.592	2993.56
556.689	2940.56
556.787	2954.56
556.884	2893.56
556.981	2905.56
557.079	2930.56
557.176	2996.56
557.273	2980.56
557.371	3010.56
557.468	3004.56
557.566	2972.56
557.663	2916.56
557.76	2975.56
557.857	2959.56
557.955	2914.56
558.052	3017.56
558.149	3111.56
558.247	3039.56
558.344	2906.56
558.441	2955.56
558.538	2851.56
558.636	2951.56
558.733	2985.56
558.83	3031.56
558.927	2907.56
559.024	2931.56
559.122	2942.56
559.219	2918.56
559.316	2985.56
559.413	3056.56
559.51	2838.56
559.607	2819.56
559.704	2967.56
559.801	2943.56
559.899	2930.56
559.996	3165.56
560.093	3011.56
560.19	2854.56
560.287	3009.56
560.384	3125.56
560.481	2962.56
560.578	2856.56
560.675	2948.56
560.772	3016.56
560.869	2935.56
560.966	3043.56
561.063	2982.56
561.16	3029.56
561.257	3091.56
561.354	3003.56
561.451	2925.56
561.548	2983.56
561.645	3142.56
561.742	2951.56
561.838	2963.56
561.935	2984.56
562.032	2977.56
562.129	2990.56
562.226	3091.56
562.323	2914.56
562.42	2966.56
562.516	3006.56
562.613	2970.56
562.71	2982.56
562.807	3736.56
562.904	3046.56
563	3043.56
563.097	2988.56
563.194	3094.56
563.291	2993.56
563.387	2975.56
563.484	3170.56
563.581	3065.56
563.678	3007.56
563.774	3386.56
563.871	2995.56
563.968	3075.56
564.064	3145.56
564.161	3160.56
564.258	3143.56
564.354	3262.56
564.451	3188.56
564.548	3250.56
564.644	3247.56
564.741	3237.56
564.837	3243.56
564.934	3277.56
565.031	3289.56
565.127	3316.56
565.224	3417.56
565.32	3562.56
565.417	3573.56
565.513	3480.56
565.61	3535.56
565.706	3702.56
565.803	3687.56
565.899	3651.56
565.996	3815.56
566.092	3838.56
566.189	3907.56
566.285	4093.56
566.382	4171.56
566.478	4259.56
566.574	4507.56
566.671	4373.56
566.767	4323.56
566.864	4405.56
566.96	4537.56
567.056	4412.56
567.153	4625.56
567.249	4643.56
567.345	4655.56
567.442	4693.56
567.538	4887.56
567.634	4707.56
567.731	4684.56
567.827	4849.56
567.923	4805.56
568.019	4523.56
568.116	4445.56
568.212	4272.56
568.308	4198.56
568.404	4104.56
568.501	3982.56
568.597	3779.56
568.693	3671.56
568.789	4152.56
568.885	3449.56
568.982	3478.56
569.078	3387.56
569.174	3286.56
569.27	3154.56
569.366	3233.56
569.462	3195.56
569.558	3096.56
569.655	3032.56
569.751	3022.56
569.847	2972.56
569.943	3006.56
570.039	2957.56
570.135	3350.56
570.231	2962.56
570.327	3110.56
570.423	3074.56
570.519	2997.56
570.615	3023.56
570.711	3035.56
570.807	3071.56
570.903	3031.56
570.999	3069.56
571.095	2999.56
571.191	2954.56
571.287	3002.56
571.383	2908.56
571.479	2853.56
571.574	2829.56
571.67	2683.56
571.766	2943.56
571.862	2789.56
571.958	2675.56
572.054	2736.56
572.15	2646.56
572.246	2623.56
572.341	2617.56
572.437	2543.56
572.533	2658.56
572.629	2582.56
572.725	2506.56
572.82	2458.56
572.916	2500.56
573.012	2408.56
573.108	2532.56
573.203	2442.56
573.299	2347.56
573.395	2376.56
573.49	2352.56
573.586	2256.56
573.682	2305.56
573.778	2502.56
573.873	2344.56
573.969	2273.56
574.065	2437.56
574.16	2289.56
574.256	2329.56
574.351	2400.56
574.447	2289.56
574.543	2357.56
574.638	2425.56
574.734	2399.56
574.829	2458.56
574.925	2332.56
575.02	2335.56
575.116	2278.56
575.212	2313.56
575.307	2383.56
575.403	2244.56
575.498	2269.56
575.594	2293.56
575.689	2281.56
575.784	2309.56
575.88	2245.56
575.975	2289.56
576.071	2183.56
576.166	2133.56
576.262	2233.56
576.357	2170.56
576.452	2322.56
576.548	2239.56
576.643	2129.56
576.739	2189.56
576.834	2242.56
576.929	2126.56
577.025	2708.56
577.12	2105.56
577.215	2090.56
577.311	2066.56
577.406	2103.56
577.501	2279.56
577.597	1957.56
577.692	2143.56
577.787	2188.56
577.882	2000.56
577.978	2006.56
578.073	2054.56
578.168	1955.56
578.263	1905.56
578.358	2014.56
578.454	1955.56
578.549	1899.56
578.644	1881.56
578.739	1979.56
578.834	1878.56
578.929	1895.56
579.025	1895.56
579.12	1919.56
579.215	2066.56
579.31	2037.56
579.405	1792.56
579.5	1859.56
579.595	1934.56
579.69	1803.56
579.785	1753.56
579.88	1779.56
579.975	1832.56
580.07	1795.56
580.165	1790.56
580.26	1932.56
580.355	1765.56
580.45	1824.56
580.545	1796.56
580.64	1811.56
580.735	1854.56
580.83	1833.56
580.925	1729.56
581.02	1694.56
581.115	1790.56
581.21	1703.56
581.305	1773.56
581.4	1714.56
581.495	1799.56
581.589	1687.56
581.684	1673.56
581.779	1747.56
581.874	1704.56
581.969	1783.56
582.064	1723.56
582.158	1602.56
582.253	1586.56
582.348	1726.56
582.443	1677.56
582.537	1658.56
582.632	1868.56
582.727	1691.56
582.822	1658.56
582.916	1595.56
583.011	1678.56
583.106	1608.56
583.201	1590.56
583.295	1640.56
583.39	1566.56
583.485	1577.56
583.579	3098.56
583.674	1669.56
583.769	1750.56
583.863	1595.56
583.958	1588.56
584.052	1483.56
584.147	1498.56
584.242	1478.56
584.336	1523.56
584.431	1699.56
584.525	1561.56
584.62	1621.56
584.714	1553.56
584.809	1588.56
584.903	1508.56
584.998	1567.56
585.092	1469.56
585.187	1576.56
585.281	1432.56
585.376	1487.56
585.47	1547.56
585.565	1479.56
585.659	1429.56
585.754	1497.56
585.848	1470.56
585.942	1427.56
586.037	1503.56
586.131	3413.56
586.226	1563.56
586.32	1484.56
586.414	1378.56
586.509	1455.56
586.603	1492.56
586.697	1449.56
586.792	1406.56
586.886	1375.56
586.98	1553.56
587.075	1404.56
587.169	1392.56
587.263	1583.56
587.357	1422.56
587.452	1338.56
587.546	1505.56
587.64	1365.56
587.734	1332.56
587.829	1387.56
587.923	1353.56
588.017	1311.56
588.111	1310.56
588.205	1438.56
588.3	1303.56
588.394	1268.56
588.488	1338.56
588.582	1352.56
588.676	1331.56
588.77	1341.56
588.864	1447.56
588.958	1405.56
589.052	1316.56
589.147	1366.56
589.241	1379.56
589.335	1307.56
589.429	1405.56
589.523	1350.56
589.617	1335.56
589.711	1413.56
589.805	1363.56
589.899	1379.56
589.993	1331.56
590.087	1236.56
590.181	1242.56
590.275	1349.56
590.369	1357.56
590.462	1206.56
590.556	1278.56
590.65	1275.56
590.744	1289.56
590.838	1253.56
590.932	1343.56
591.026	1351.56
591.12	1410.56
591.214	1328.56
591.307	1342.56
591.401	1345.56
591.495	1408.56
591.589	1336.56
591.683	1338.56
591.777	1406.56
591.87	1729.56
591.964	1396.56
592.058	1377.56
592.152	1539.56
592.245	1348.56
592.339	1448.56
592.433	1518.56
592.527	1428.56
592.62	1402.56
592.714	1536.56
592.808	1512.56
592.901	1478.56
592.995	1479.56
593.089	1687.56
593.182	1475.56
593.276	1508.56
593.37	1490.56
593.463	1468.56
593.557	1487.56
593.65	1495.56
593.744	1459.56
593.837	1580.56
593.931	1455.56
594.025	3516.56
594.118	1666.56
594.212	1458.56
594.305	1440.56
594.399	1460.56
594.492	1719.56
594.586	1444.56
594.679	1371.56
594.773	1375.56
594.866	1445.56
594.96	1357.56
595.053	1361.56
595.146	1351.56
595.24	1272.56
595.333	1297.56
595.427	1250.56
595.52	1259.56
595.614	1360.56
595.707	1262.56
595.8	1209.56
595.894	1225.56
595.987	1181.56
596.08	1169.56
596.174	1483.56
596.267	1291.56
596.36	1342.56
596.454	1292.56
596.547	1221.56
596.64	1189.56
596.733	1134.56
596.827	1164.56
596.92	1143.56
597.013	1097.56
597.106	1064.56
597.2	1050.56
597.293	1099.56
597.386	1172.56
597.479	1143.56
597.572	1166.56
597.666	1071.56
597.759	1053.56
597.852	1223.56
597.945	992.56
598.038	1032.56
598.131	1085.56
598.224	1087.56
598.317	1065.56
598.411	1049.56
598.504	1064.56
598.597	1074.56
598.69	1057.56
598.783	1070.56
598.876	1039.56
598.969	1099.56
599.062	1030.56
599.155	1114.56
599.248	1017.56
599.341	1062.56
599.434	984.56
599.527	1062.56
599.62	1014.56
599.713	1025.56
599.806	1059.56
599.899	1187.56
599.991	1026.56
600.084	1156.56
600.177	987.56
600.27	1057.56
600.363	1167.56
600.456	1019.56
600.549	1073.56
600.642	997.56
600.734	975.56
600.827	1042.56
600.92	1148.56
601.013	1043.56
601.106	1123.56
601.199	1014.56
601.291	998.56
601.384	990.56
601.477	1246.56
601.57	1108.56
601.662	1044.56
601.755	1090.56
601.848	1036.56
601.94	974.56
602.033	1150.56
602.126	1074.56
602.219	1033.56
602.311	1069.56
602.404	1043.56
602.497	983.56
602.589	1007.56
602.682	1102.56
602.774	1017.56
602.867	1012.56
602.96	1052.56
603.052	1045.56
603.145	1014.56
603.237	990.56
603.33	1011.56
603.422	1071.56
603.515	976.56
603.608	1055.56
603.7	958.56
603.793	994.56
603.885	999.56
603.978	944.56
604.07	930.56
604.163	984.56
604.255	1001.56
604.347	954.56
604.44	961.56
604.532	1052.56
604.625	983.56
604.717	940.56
604.81	1101.56
604.902	984.56
604.994	946.56
605.087	994.56
605.179	976.56
605.271	957.56
605.364	1046.56
605.456	997.56
605.548	959.56
605.641	993.56
605.733	955.56
605.825	1003.56
605.918	934.56
606.01	1140.56
606.102	1283.56
606.194	1002.56
606.287	1191.56
606.379	949.56
606.471	990.56
606.563	1099.56
606.655	1035.56
606.748	1047.56
606.84	993.56
606.932	1065.56
607.024	927.56
607.116	942.56
607.208	995.56
607.301	1010.56
607.393	921.56
607.485	993.56
607.577	1022.56
607.669	1057.56
607.761	1075.56
607.853	1198.56
607.945	915.56
608.037	989.56
608.129	997.56
608.221	968.56
608.313	943.56
608.405	985.56
608.497	962.56
608.589	934.56
608.681	1038.56
608.773	985.56
608.865	1004.56
608.957	1052.56
609.049	921.56
609.141	1008.56
609.233	998.56
609.325	986.56
609.417	903.56
609.509	996.56
609.601	1094.56
609.693	1011.56
609.784	920.56
609.876	938.56
609.968	954.56
610.06	2758.56
610.152	1147.56
610.244	1644.56
610.335	977.56
610.427	927.56
610.519	910.56
610.611	891.56
610.702	889.56
610.794	930.56
610.886	996.56
610.978	907.56
611.069	1269.56
611.161	935.56
611.253	967.56
611.344	940.56
611.436	833.56
611.528	876.56
611.62	818.56
611.711	826.56
611.803	801.56
611.894	798.56
611.986	828.56
612.078	750.56
612.169	779.56
612.261	816.56
612.352	682.56
612.444	687.56
612.536	856.56
612.627	758.56
612.719	684.56
612.81	705.56
612.902	631.56
612.993	640.56
613.085	679.56
613.176	613.56
613.268	630.56
613.359	667.56
613.451	617.56
613.542	641.56
613.634	590.56
613.725	711.56
613.816	684.56
613.908	534.56
613.999	586.56
614.091	478.56
614.182	465.56
614.273	558.56
614.365	470.56
614.456	441.56
614.547	518.56
614.639	472.56
614.73	438.56
614.821	498.56
614.913	443.56
615.004	399.56
615.095	390.56
615.187	449.56
