Data from 14g_HRC06701__43__226.txt Node

Date: Thu Apr 18 01:58:37 CDT 2024
User: Estudiantes 2
Spectrometer: HR+C0670
Trigger mode: 4
Integration Time (sec): 1.000000E0
Scans to average: 1
Electric dark correction enabled: true
Nonlinearity correction enabled: false
Boxcar width: 0
XAxis mode: Wavelengths
Number of Pixels in Spectrum: 2048
>>>>>Begin Spectral Data<<<<<
407.81	-78.81
407.921	-78.81
408.032	-78.81
408.143	-164.81
408.254	-124.81
408.365	75.19
408.476	216.19
408.587	-27.81
408.699	0.19
408.81	-10.81
408.921	-45.81
409.032	-46.81
409.143	64.19
409.254	15.19
409.365	80.19
409.476	4.19
409.587	-9.81
409.698	54.19
409.809	137.19
409.92	-30.81
410.031	-47.81
410.142	59.19
410.253	29.19
410.364	10.19
410.475	642.19
410.585	3108.19
410.696	3398.19
410.807	3270.19
410.918	3337.19
411.029	3445.19
411.14	3417.19
411.251	3411.19
411.362	3419.19
411.472	3427.19
411.583	3396.19
411.694	3527.19
411.805	3421.19
411.916	3447.19
412.026	3467.19
412.137	3468.19
412.248	3412.19
412.359	3459.19
412.47	3301.19
412.58	3337.19
412.691	3490.19
412.802	3289.19
412.912	3406.19
413.023	3397.19
413.134	3366.19
413.245	3397.19
413.355	3366.19
413.466	3317.19
413.577	3285.19
413.687	3327.19
413.798	3310.19
413.909	3331.19
414.019	3440.19
414.13	3403.19
414.24	3349.19
414.351	3453.19
414.462	3608.19
414.572	3422.19
414.683	3358.19
414.793	3455.19
414.904	3686.19
415.014	3360.19
415.125	3372.19
415.235	3484.19
415.346	3527.19
415.456	3510.19
415.567	3401.19
415.677	3313.19
415.788	3423.19
415.898	3362.19
416.009	3317.19
416.119	3319.19
416.23	3307.19
416.34	3359.19
416.45	3387.19
416.561	4222.19
416.671	3472.19
416.782	3340.19
416.892	3426.19
417.002	3491.19
417.113	3530.19
417.223	3485.19
417.333	3471.19
417.444	3441.19
417.554	3531.19
417.664	3569.19
417.775	3475.19
417.885	3560.19
417.995	3595.19
418.106	3814.19
418.216	3650.19
418.326	3722.19
418.436	3864.19
418.547	3722.19
418.657	3663.19
418.767	3876.19
418.877	3746.19
418.987	3827.19
419.098	3866.19
419.208	3953.19
419.318	3829.19
419.428	3928.19
419.538	3830.19
419.648	3934.19
419.759	3832.19
419.869	3912.19
419.979	3779.19
420.089	3878.19
420.199	3895.19
420.309	3880.19
420.419	3823.19
420.529	3920.19
420.639	4397.19
420.749	3984.19
420.859	3932.19
420.969	4095.19
421.079	4248.19
421.189	3998.19
421.299	4011.19
421.409	3924.19
421.519	4084.19
421.629	4226.19
421.739	4087.19
421.849	3966.19
421.959	4086.19
422.069	4200.19
422.179	4101.19
422.289	4175.19
422.399	4335.19
422.509	4351.19
422.619	7726.19
422.729	4617.19
422.838	4263.19
422.948	4390.19
423.058	4446.19
423.168	4475.19
423.278	4498.19
423.388	4539.19
423.498	4623.19
423.607	4579.19
423.717	4923.19
423.827	4987.19
423.937	4713.19
424.046	4700.19
424.156	4877.19
424.266	4703.19
424.376	5055.19
424.485	5035.19
424.595	4873.19
424.705	4765.19
424.815	4816.19
424.924	5333.19
425.034	4962.19
425.144	4879.19
425.253	4940.19
425.363	5051.19
425.473	5014.19
425.582	4887.19
425.692	5028.19
425.801	4982.19
425.911	5176.19
426.021	5054.19
426.13	5233.19
426.24	5361.19
426.349	5225.19
426.459	5181.19
426.568	5080.19
426.678	5319.19
426.787	5281.19
426.897	5205.19
427.006	5367.19
427.116	5460.19
427.225	5270.19
427.335	5467.19
427.444	5386.19
427.554	5363.19
427.663	5488.19
427.773	5450.19
427.882	5559.19
427.992	5535.19
428.101	5591.19
428.21	5525.19
428.32	5555.19
428.429	5638.19
428.539	5883.19
428.648	5682.19
428.757	5705.19
428.867	5847.19
428.976	5915.19
429.085	5770.19
429.195	5755.19
429.304	5803.19
429.413	5918.19
429.523	5986.19
429.632	5910.19
429.741	5971.19
429.85	5797.19
429.96	6009.19
430.069	6082.19
430.178	6136.19
430.287	6315.19
430.397	5993.19
430.506	6099.19
430.615	6111.19
430.724	6101.19
430.833	6201.19
430.943	6214.19
431.052	6248.19
431.161	6303.19
431.27	6455.19
431.379	6376.19
431.488	6664.19
431.597	6570.19
431.706	6510.19
431.816	6623.19
431.925	6633.19
432.034	6560.19
432.143	6597.19
432.252	6494.19
432.361	6679.19
432.47	6512.19
432.579	6501.19
432.688	6536.19
432.797	6522.19
432.906	6414.19
433.015	6566.19
433.124	6884.19
433.233	6674.19
433.342	6618.19
433.451	6723.19
433.56	6650.19
433.669	6606.19
433.778	6577.19
433.886	6750.19
433.995	6675.19
434.104	7039.19
434.213	6810.19
434.322	6880.19
434.431	7149.19
434.54	7231.19
434.649	7337.19
434.757	7233.19
434.866	7297.19
434.975	7128.19
435.084	7056.19
435.193	6931.19
435.301	6915.19
435.41	6881.19
435.519	7140.19
435.628	6451.19
435.737	6390.19
435.845	6329.19
435.954	6206.19
436.063	6184.19
436.171	6271.19
436.28	6292.19
436.389	6401.19
436.498	6108.19
436.606	6244.19
436.715	6427.19
436.823	6025.19
436.932	6054.19
437.041	5961.19
437.149	6021.19
437.258	5970.19
437.367	5700.19
437.475	5729.19
437.584	6074.19
437.692	5765.19
437.801	7268.19
437.91	5912.19
438.018	5728.19
438.127	5656.19
438.235	5750.19
438.344	5834.19
438.452	5691.19
438.561	5528.19
438.669	5710.19
438.778	5606.19
438.886	5490.19
438.995	5605.19
439.103	5608.19
439.212	5591.19
439.32	5718.19
439.428	5595.19
439.537	5526.19
439.645	5864.19
439.754	5739.19
439.862	5534.19
439.97	5755.19
440.079	5731.19
440.187	5700.19
440.295	5898.19
440.404	5742.19
440.512	5777.19
440.62	5820.19
440.729	5855.19
440.837	6068.19
440.945	6629.19
441.054	6077.19
441.162	6150.19
441.27	6354.19
441.378	6410.19
441.487	6299.19
441.595	6644.19
441.703	6385.19
441.811	6222.19
441.92	6189.19
442.028	5977.19
442.136	6071.19
442.244	6105.19
442.352	6034.19
442.461	5890.19
442.569	5904.19
442.677	5925.19
442.785	6085.19
442.893	5979.19
443.001	5871.19
443.109	5921.19
443.217	6051.19
443.325	5907.19
443.434	6489.19
443.542	6325.19
443.65	6194.19
443.758	6233.19
443.866	6183.19
443.974	6661.19
444.082	6440.19
444.19	6600.19
444.298	6649.19
444.406	6807.19
444.514	6940.19
444.622	7056.19
444.73	7062.19
444.838	6879.19
444.946	6873.19
445.054	6650.19
445.161	6563.19
445.269	6301.19
445.377	6359.19
445.485	6277.19
445.593	6236.19
445.701	6353.19
445.809	6160.19
445.917	6067.19
446.025	6122.19
446.132	6244.19
446.24	6230.19
446.348	6083.19
446.456	6102.19
446.564	5994.19
446.671	6071.19
446.779	6040.19
446.887	5960.19
446.995	5888.19
447.102	5943.19
447.21	6007.19
447.318	5985.19
447.426	5879.19
447.533	6183.19
447.641	7122.19
447.749	6025.19
447.856	5935.19
447.964	6045.19
448.072	6078.19
448.179	5941.19
448.287	5951.19
448.395	6021.19
448.502	6010.19
448.61	5899.19
448.718	5865.19
448.825	6101.19
448.933	6026.19
449.04	6089.19
449.148	6086.19
449.256	6152.19
449.363	6101.19
449.471	6199.19
449.578	6261.19
449.686	6161.19
449.793	6426.19
449.901	6264.19
450.008	6308.19
450.116	6436.19
450.223	6423.19
450.331	6500.19
450.438	6578.19
450.546	6677.19
450.653	6803.19
450.76	6841.19
450.868	6834.19
450.975	7086.19
451.083	6860.19
451.19	6907.19
451.297	6824.19
451.405	6933.19
451.512	6980.19
451.619	7077.19
451.727	7131.19
451.834	6994.19
451.941	6983.19
452.049	7017.19
452.156	7018.19
452.263	7257.19
452.371	7207.19
452.478	7046.19
452.585	7293.19
452.692	7169.19
452.8	7228.19
452.907	7375.19
453.014	7292.19
453.121	7319.19
453.229	7305.19
453.336	7495.19
453.443	7575.19
453.55	7545.19
453.657	7477.19
453.765	7634.19
453.872	7474.19
453.979	7591.19
454.086	7668.19
454.193	7677.19
454.3	7531.19
454.407	7782.19
454.514	7744.19
454.621	7603.19
454.729	7658.19
454.836	7649.19
454.943	7757.19
455.05	7805.19
455.157	7957.19
455.264	7726.19
455.371	7878.19
455.478	7918.19
455.585	8251.19
455.692	8011.19
455.799	8083.19
455.906	8084.19
456.013	7917.19
456.12	8031.19
456.227	7995.19
456.334	8247.19
456.44	8171.19
456.547	8240.19
456.654	8119.19
456.761	8204.19
456.868	8390.19
456.975	8419.19
457.082	8257.19
457.189	8319.19
457.296	8359.19
457.402	8337.19
457.509	8328.19
457.616	8547.19
457.723	8812.19
457.83	8758.19
457.936	8741.19
458.043	9202.19
458.15	8806.19
458.257	8984.19
458.363	9064.19
458.47	9097.19
458.577	9420.19
458.684	9421.19
458.79	9705.19
458.897	9663.19
459.004	9890.19
459.11	9901.19
459.217	9908.19
459.324	10088.19
459.43	10226.19
459.537	10399.19
459.644	10590.19
459.75	10488.19
459.857	10995.19
459.964	10756.19
460.07	10747.19
460.177	11059.19
460.283	10981.19
460.39	11178.19
460.496	11046.19
460.603	11115.19
460.71	11070.19
460.816	10992.19
460.923	10968.19
461.029	10957.19
461.136	11141.19
461.242	10837.19
461.349	11159.19
461.455	11027.19
461.562	11186.19
461.668	11372.19
461.774	11171.19
461.881	11326.19
461.987	11329.19
462.094	11743.19
462.2	11705.19
462.307	11594.19
462.413	11706.19
462.519	12027.19
462.626	12542.19
462.732	12683.19
462.838	13006.19
462.945	13449.19
463.051	13433.19
463.157	13176.19
463.264	12908.19
463.37	12479.19
463.476	12325.19
463.583	12117.19
463.689	12003.19
463.795	12103.19
463.901	12029.19
464.008	12285.19
464.114	12178.19
464.22	12202.19
464.326	12131.19
464.433	11700.19
464.539	11589.19
464.645	11229.19
464.751	11452.19
464.857	10980.19
464.963	10581.19
465.07	10362.19
465.176	10078.19
465.282	9844.19
465.388	9732.19
465.494	9374.19
465.6	9189.19
465.706	8948.19
465.812	8934.19
465.918	8970.19
466.024	8712.19
466.131	8628.19
466.237	8414.19
466.343	8320.19
466.449	8240.19
466.555	8104.19
466.661	7927.19
466.767	7897.19
466.873	8017.19
466.979	8113.19
467.085	7807.19
467.191	7856.19
467.296	7796.19
467.402	7766.19
467.508	7755.19
467.614	7838.19
467.72	7441.19
467.826	7467.19
467.932	7526.19
468.038	7244.19
468.144	7298.19
468.25	7263.19
468.355	7150.19
468.461	7168.19
468.567	7127.19
468.673	7225.19
468.779	7079.19
468.885	7035.19
468.99	7081.19
469.096	7016.19
469.202	7156.19
469.308	7151.19
469.413	7209.19
469.519	7214.19
469.625	7370.19
469.731	7296.19
469.836	7255.19
469.942	7387.19
470.048	7224.19
470.153	7269.19
470.259	7328.19
470.365	7352.19
470.47	7361.19
470.576	7233.19
470.682	7219.19
470.787	7026.19
470.893	6903.19
470.999	7044.19
471.104	7016.19
471.21	6629.19
471.315	6552.19
471.421	6548.19
471.527	6723.19
471.632	6499.19
471.738	6528.19
471.843	6353.19
471.949	6419.19
472.054	6414.19
472.16	6323.19
472.265	6297.19
472.371	6238.19
472.476	6121.19
472.582	6283.19
472.687	6083.19
472.793	6111.19
472.898	6029.19
473.003	6038.19
473.109	6066.19
473.214	5809.19
473.32	6030.19
473.425	6107.19
473.53	6041.19
473.636	5927.19
473.741	5909.19
473.847	5788.19
473.952	5943.19
474.057	5847.19
474.163	5931.19
474.268	5834.19
474.373	5993.19
474.478	5901.19
474.584	5803.19
474.689	5883.19
474.794	5897.19
474.9	6098.19
475.005	5815.19
475.11	5986.19
475.215	5812.19
475.321	5859.19
475.426	6057.19
475.531	6046.19
475.636	5822.19
475.741	5886.19
475.846	6141.19
475.952	6222.19
476.057	6007.19
476.162	6129.19
476.267	6084.19
476.372	6255.19
476.477	6045.19
476.582	6163.19
476.687	6085.19
476.793	6121.19
476.898	6197.19
477.003	6130.19
477.108	6234.19
477.213	6397.19
477.318	6217.19
477.423	6431.19
477.528	6566.19
477.633	6586.19
477.738	6636.19
477.843	6518.19
477.948	6642.19
478.053	6638.19
478.158	6755.19
478.263	6781.19
478.368	6826.19
478.473	6905.19
478.578	6986.19
478.682	6946.19
478.787	7065.19
478.892	7097.19
478.997	7172.19
479.102	7008.19
479.207	7041.19
479.312	7297.19
479.417	7166.19
479.521	7027.19
479.626	7291.19
479.731	7208.19
479.836	7178.19
479.941	7568.19
480.045	7597.19
480.15	7700.19
480.255	7636.19
480.36	7644.19
480.465	7649.19
480.569	7804.19
480.674	7464.19
480.779	7370.19
480.883	7422.19
480.988	7459.19
481.093	7402.19
481.197	7423.19
481.302	7339.19
481.407	7346.19
481.511	8677.19
481.616	7552.19
481.721	7342.19
481.825	7444.19
481.93	7336.19
482.035	7361.19
482.139	7466.19
482.244	7385.19
482.348	7507.19
482.453	7359.19
482.557	7595.19
482.662	7545.19
482.767	7470.19
482.871	7420.19
482.976	7594.19
483.08	7604.19
483.185	7930.19
483.289	7689.19
483.394	7714.19
483.498	7779.19
483.603	7858.19
483.707	8004.19
483.811	8000.19
483.916	8188.19
484.02	8055.19
484.125	8319.19
484.229	8118.19
484.333	8447.19
484.438	8191.19
484.542	8341.19
484.647	8416.19
484.751	8548.19
484.855	8526.19
484.96	8521.19
485.064	8764.19
485.168	8837.19
485.273	8589.19
485.377	8762.19
485.481	9082.19
485.585	8904.19
485.69	8899.19
485.794	8876.19
485.898	8988.19
486.002	9011.19
486.107	9039.19
486.211	8888.19
486.315	9144.19
486.419	9178.19
486.524	9198.19
486.628	8971.19
486.732	9065.19
486.836	9078.19
486.94	9155.19
487.044	9089.19
487.148	9074.19
487.253	9025.19
487.357	9173.19
487.461	9215.19
487.565	9202.19
487.669	9286.19
487.773	9092.19
487.877	9234.19
487.981	9214.19
488.085	9030.19
488.189	9067.19
488.293	9194.19
488.397	9506.19
488.501	9211.19
488.605	9206.19
488.709	9179.19
488.813	9113.19
488.917	9092.19
489.021	9189.19
489.125	9364.19
489.229	9091.19
489.333	9379.19
489.437	9319.19
489.541	9233.19
489.645	9133.19
489.749	9387.19
489.853	9376.19
489.956	9185.19
490.06	9364.19
490.164	9348.19
490.268	9203.19
490.372	9338.19
490.476	9259.19
490.579	9359.19
490.683	10003.19
490.787	9401.19
490.891	9111.19
490.995	9258.19
491.098	9306.19
491.202	9312.19
491.306	9308.19
491.41	9239.19
491.513	9257.19
491.617	9158.19
491.721	9530.19
491.824	9519.19
491.928	9308.19
492.032	9552.19
492.136	9335.19
492.239	9286.19
492.343	9428.19
492.446	9773.19
492.55	9196.19
492.654	9144.19
492.757	9256.19
492.861	9347.19
492.965	9328.19
493.068	9318.19
493.172	9330.19
493.275	9157.19
493.379	9295.19
493.482	9403.19
493.586	9398.19
493.689	9601.19
493.793	9428.19
493.896	9312.19
494	9472.19
494.103	9504.19
494.207	9675.19
494.31	9703.19
494.414	9415.19
494.517	9310.19
494.621	9110.19
494.724	9443.19
494.828	9280.19
494.931	9076.19
495.034	9109.19
495.138	9316.19
495.241	9173.19
495.345	9779.19
495.448	9356.19
495.551	9046.19
495.655	9060.19
495.758	9104.19
495.861	9030.19
495.965	9167.19
496.068	9201.19
496.171	9273.19
496.274	9104.19
496.378	9218.19
496.481	9260.19
496.584	9246.19
496.687	9234.19
496.791	9487.19
496.894	9324.19
496.997	9363.19
497.1	9458.19
497.204	9534.19
497.307	9423.19
497.41	9810.19
497.513	9968.19
497.616	9674.19
497.719	9829.19
497.823	9976.19
497.926	10128.19
498.029	10117.19
498.132	10251.19
498.235	10569.19
498.338	10677.19
498.441	11034.19
498.544	11136.19
498.647	11468.19
498.75	11837.19
498.853	12168.19
498.956	12182.19
499.059	12885.19
499.163	13128.19
499.266	13516.19
499.369	13921.19
499.471	14495.19
499.574	14556.19
499.677	14556.19
499.78	14556.19
499.883	14556.19
499.986	14556.19
500.089	14556.19
500.192	14556.19
500.295	14556.19
500.398	14556.19
500.501	14556.19
500.604	14556.19
500.707	14556.19
500.809	14556.19
500.912	14556.19
501.015	14556.19
501.118	14556.19
501.221	14084.19
501.324	13537.19
501.426	13026.19
501.529	12474.19
501.632	11971.19
501.735	11490.19
501.837	11242.19
501.94	10894.19
502.043	10727.19
502.146	10562.19
502.248	10305.19
502.351	10007.19
502.454	9896.19
502.557	9701.19
502.659	9552.19
502.762	9252.19
502.865	9018.19
502.967	8887.19
503.07	8805.19
503.173	8699.19
503.275	8607.19
503.378	8357.19
503.48	8363.19
503.583	8355.19
503.686	8351.19
503.788	8569.19
503.891	8297.19
503.993	8543.19
504.096	8410.19
504.198	8334.19
504.301	8342.19
504.403	8400.19
504.506	8236.19
504.608	8057.19
504.711	7856.19
504.813	7852.19
504.916	7586.19
505.018	7349.19
505.121	7266.19
505.223	7251.19
505.326	7103.19
505.428	7158.19
505.531	6999.19
505.633	6952.19
505.735	6792.19
505.838	6776.19
505.94	6707.19
506.042	6688.19
506.145	6594.19
506.247	6504.19
506.35	6459.19
506.452	6573.19
506.554	6526.19
506.656	6342.19
506.759	6403.19
506.861	6323.19
506.963	6280.19
507.066	6347.19
507.168	6420.19
507.27	6240.19
507.372	6191.19
507.475	6143.19
507.577	6202.19
507.679	6136.19
507.781	6025.19
507.883	6054.19
507.986	5975.19
508.088	6086.19
508.19	6053.19
508.292	5992.19
508.394	5953.19
508.496	5949.19
508.598	5965.19
508.701	5970.19
508.803	5985.19
508.905	5860.19
509.007	5913.19
509.109	6070.19
509.211	5944.19
509.313	5849.19
509.415	5773.19
509.517	5920.19
509.619	5690.19
509.721	5887.19
509.823	5777.19
509.925	5941.19
510.027	5748.19
510.129	5837.19
510.231	5819.19
510.333	5672.19
510.435	5784.19
510.537	5785.19
510.639	5825.19
510.741	5718.19
510.843	5801.19
510.945	5720.19
511.047	5847.19
511.148	5819.19
511.25	5616.19
511.352	5818.19
511.454	5803.19
511.556	5916.19
511.658	5694.19
511.76	5833.19
511.861	5928.19
511.963	5772.19
512.065	5648.19
512.167	5702.19
512.268	5968.19
512.37	5909.19
512.472	5872.19
512.574	5883.19
512.676	5883.19
512.777	5803.19
512.879	5688.19
512.981	5769.19
513.082	5866.19
513.184	5780.19
513.286	6253.19
513.387	5992.19
513.489	6083.19
513.591	5941.19
513.692	6086.19
513.794	6045.19
513.896	5772.19
513.997	5914.19
514.099	5988.19
514.2	6104.19
514.302	6016.19
514.404	6086.19
514.505	5935.19
514.607	6079.19
514.708	6114.19
514.81	6178.19
514.911	6104.19
515.013	6345.19
515.114	6190.19
515.216	6179.19
515.317	6422.19
515.419	6374.19
515.52	6465.19
515.622	6479.19
515.723	6443.19
515.825	6662.19
515.926	6705.19
516.027	6769.19
516.129	6756.19
516.23	6878.19
516.332	6980.19
516.433	7141.19
516.534	7240.19
516.636	7164.19
516.737	7300.19
516.838	8424.19
516.94	7686.19
517.041	7897.19
517.142	8057.19
517.244	8178.19
517.345	8183.19
517.446	8273.19
517.547	8304.19
517.649	8334.19
517.75	8308.19
517.851	8272.19
517.952	8410.19
518.054	8227.19
518.155	8040.19
518.256	7870.19
518.357	8047.19
518.458	7659.19
518.56	7591.19
518.661	7531.19
518.762	7418.19
518.863	7475.19
518.964	7362.19
519.065	7313.19
519.166	7174.19
519.268	7116.19
519.369	7393.19
519.47	6982.19
519.571	6996.19
519.672	6925.19
519.773	6874.19
519.874	6916.19
519.975	7048.19
520.076	6810.19
520.177	6903.19
520.278	6839.19
520.379	6764.19
520.48	6697.19
520.581	6794.19
520.682	6784.19
520.783	6577.19
520.884	6708.19
520.985	6604.19
521.086	6627.19
521.187	6694.19
521.288	6597.19
521.389	6719.19
521.489	6590.19
521.59	6641.19
521.691	6673.19
521.792	6633.19
521.893	6777.19
521.994	6726.19
522.095	6577.19
522.195	6673.19
522.296	6700.19
522.397	6741.19
522.498	6640.19
522.599	6614.19
522.699	6549.19
522.8	6592.19
522.901	6711.19
523.002	6678.19
523.102	6840.19
523.203	6728.19
523.304	6921.19
523.405	6660.19
523.505	6687.19
523.606	6674.19
523.707	6682.19
523.807	6723.19
523.908	6723.19
524.009	6884.19
524.109	6735.19
524.21	6697.19
524.31	6820.19
524.411	6818.19
524.512	6882.19
524.612	6734.19
524.713	6788.19
524.813	6642.19
524.914	7070.19
525.014	11202.19
525.115	6905.19
525.216	6698.19
525.316	6676.19
525.417	6703.19
525.517	6729.19
525.618	6751.19
525.718	6655.19
525.819	6674.19
525.919	6741.19
526.019	6580.19
526.12	6669.19
526.22	6558.19
526.321	6534.19
526.421	6471.19
526.522	6623.19
526.622	6534.19
526.722	6524.19
526.823	6630.19
526.923	6576.19
527.023	6718.19
527.124	6574.19
527.224	6623.19
527.324	6558.19
527.425	6568.19
527.525	6487.19
527.625	6591.19
527.726	6588.19
527.826	6731.19
527.926	6602.19
528.026	6536.19
528.127	6578.19
528.227	6633.19
528.327	6725.19
528.427	6706.19
528.528	6764.19
528.628	6782.19
528.728	6632.19
528.828	6780.19
528.928	6802.19
529.029	6671.19
529.129	6727.19
529.229	6515.19
529.329	6535.19
529.429	6667.19
529.529	6734.19
529.629	6588.19
529.729	6507.19
529.829	6664.19
529.93	6412.19
530.03	6546.19
530.13	6481.19
530.23	6387.19
530.33	6613.19
530.43	6404.19
530.53	6358.19
530.63	6398.19
530.73	6360.19
530.83	6288.19
530.93	6316.19
531.03	6211.19
531.13	6407.19
531.23	6266.19
531.33	6273.19
531.429	6386.19
531.529	6277.19
531.629	6286.19
531.729	6176.19
531.829	6102.19
531.929	6261.19
532.029	6295.19
532.129	6181.19
532.229	6284.19
532.328	6123.19
532.428	6118.19
532.528	6051.19
532.628	6075.19
532.728	6094.19
532.827	6099.19
532.927	6180.19
533.027	6118.19
533.127	6256.19
533.227	6109.19
533.326	6128.19
533.426	6087.19
533.526	6121.19
533.625	6230.19
533.725	6267.19
533.825	5924.19
533.924	5862.19
534.024	5865.19
534.124	5813.19
534.223	5985.19
534.323	6312.19
534.423	5776.19
534.522	5886.19
534.622	5761.19
534.722	5737.19
534.821	5725.19
534.921	5729.19
535.02	5667.19
535.12	5714.19
535.219	5715.19
535.319	5725.19
535.419	5726.19
535.518	5509.19
535.618	5681.19
535.717	5633.19
535.817	5467.19
535.916	5453.19
536.016	5435.19
536.115	5264.19
536.215	5430.19
536.314	5237.19
536.413	5182.19
536.513	5223.19
536.612	5292.19
536.712	5163.19
536.811	5170.19
536.91	5175.19
537.01	5055.19
537.109	5286.19
537.209	5164.19
537.308	5000.19
537.407	5154.19
537.507	5140.19
537.606	5066.19
537.705	5124.19
537.805	5023.19
537.904	5062.19
538.003	5101.19
538.102	5123.19
538.202	5065.19
538.301	5104.19
538.4	5108.19
538.499	5145.19
538.599	5162.19
538.698	5323.19
538.797	5197.19
538.896	5268.19
538.995	5098.19
539.095	5054.19
539.194	5297.19
539.293	5031.19
539.392	4919.19
539.491	4906.19
539.59	4856.19
539.689	4917.19
539.789	4969.19
539.888	4672.19
539.987	4696.19
540.086	4841.19
540.185	4790.19
540.284	4877.19
540.383	4871.19
540.482	4837.19
540.581	4809.19
540.68	4929.19
540.779	4879.19
540.878	4806.19
540.977	4851.19
541.076	4874.19
541.175	4740.19
541.274	4981.19
541.373	4993.19
541.472	4897.19
541.571	4681.19
541.67	6146.19
541.769	4899.19
541.868	4753.19
541.966	4797.19
542.065	4847.19
542.164	4721.19
542.263	4660.19
542.362	4804.19
542.461	4831.19
542.56	4770.19
542.658	4770.19
542.757	4642.19
542.856	4464.19
542.955	4558.19
543.054	4487.19
543.152	4698.19
543.251	4602.19
543.35	4734.19
543.449	4504.19
543.547	4516.19
543.646	4599.19
543.745	4682.19
543.843	4665.19
543.942	4725.19
544.041	4633.19
544.14	4663.19
544.238	4721.19
544.337	4865.19
544.436	4783.19
544.534	4815.19
544.633	4732.19
544.731	4739.19
544.83	4733.19
544.929	4771.19
545.027	4652.19
545.126	4655.19
545.224	4802.19
545.323	4713.19
545.421	4754.19
545.52	4758.19
545.619	4713.19
545.717	4642.19
545.816	4774.19
545.914	4846.19
546.013	4846.19
546.111	4882.19
546.209	4740.19
546.308	4694.19
546.406	4650.19
546.505	4946.19
546.603	4692.19
546.702	4596.19
546.8	4707.19
546.899	4551.19
546.997	4686.19
547.095	4781.19
547.194	4720.19
547.292	4717.19
547.39	4796.19
547.489	4703.19
547.587	4978.19
547.685	4634.19
547.784	5007.19
547.882	4673.19
547.98	4614.19
548.079	4725.19
548.177	4625.19
548.275	4580.19
548.373	4888.19
548.472	4686.19
548.57	4633.19
548.668	4753.19
548.766	4652.19
548.864	4809.19
548.963	4664.19
549.061	4922.19
549.159	4683.19
549.257	4670.19
549.355	4723.19
549.454	4786.19
549.552	4802.19
549.65	4747.19
549.748	4746.19
549.846	4707.19
549.944	4668.19
550.042	4720.19
550.14	4648.19
550.238	4659.19
550.336	4521.19
550.434	4444.19
550.532	4567.19
550.631	4721.19
550.729	4567.19
550.827	4615.19
550.925	4483.19
551.023	4591.19
551.121	4518.19
551.218	4541.19
551.316	4510.19
551.414	4443.19
551.512	4432.19
551.61	4561.19
551.708	4667.19
551.806	4529.19
551.904	4489.19
552.002	4631.19
552.1	4608.19
552.198	4575.19
552.296	4863.19
552.393	4850.19
552.491	4989.19
552.589	5065.19
552.687	4964.19
552.785	5084.19
552.882	5232.19
552.98	5231.19
553.078	5113.19
553.176	5262.19
553.274	5063.19
553.371	4914.19
553.469	5086.19
553.567	4926.19
553.665	4906.19
553.762	5442.19
553.86	5051.19
553.958	4894.19
554.055	4742.19
554.153	4878.19
554.251	4675.19
554.348	4774.19
554.446	4739.19
554.544	4675.19
554.641	4993.19
554.739	4638.19
554.837	4782.19
554.934	4674.19
555.032	4520.19
555.129	4443.19
555.227	4778.19
555.324	8516.19
555.422	4832.19
555.519	4507.19
555.617	4436.19
555.715	4198.19
555.812	4707.19
555.91	4254.19
556.007	4409.19
556.105	4280.19
556.202	4404.19
556.299	4281.19
556.397	4315.19
556.494	4265.19
556.592	4223.19
556.689	4277.19
556.787	4231.19
556.884	4166.19
556.981	4322.19
557.079	4234.19
557.176	4288.19
557.273	4331.19
557.371	4394.19
557.468	4255.19
557.566	4305.19
557.663	4302.19
557.76	4214.19
557.857	4254.19
557.955	4441.19
558.052	4316.19
558.149	4364.19
558.247	4400.19
558.344	4182.19
558.441	4214.19
558.538	4261.19
558.636	4248.19
558.733	4260.19
558.83	4271.19
558.927	4297.19
559.024	4296.19
559.122	4071.19
559.219	4213.19
559.316	4275.19
559.413	4340.19
559.51	4248.19
559.607	4182.19
559.704	4283.19
559.801	4385.19
559.899	4146.19
559.996	4505.19
560.093	4306.19
560.19	4181.19
560.287	4275.19
560.384	4376.19
560.481	4365.19
560.578	4238.19
560.675	4252.19
560.772	4354.19
560.869	4248.19
560.966	4451.19
561.063	4283.19
561.16	4345.19
561.257	4281.19
561.354	4359.19
561.451	4282.19
561.548	4211.19
561.645	4491.19
561.742	4358.19
561.838	4227.19
561.935	4362.19
562.032	4299.19
562.129	4390.19
562.226	4277.19
562.323	4385.19
562.42	4506.19
562.516	4368.19
562.613	4378.19
562.71	4363.19
562.807	5126.19
562.904	4426.19
563	4421.19
563.097	4382.19
563.194	4452.19
563.291	4373.19
563.387	4391.19
563.484	4457.19
563.581	4436.19
563.678	4393.19
563.774	4905.19
563.871	4629.19
563.968	4607.19
564.064	4614.19
564.161	4558.19
564.258	4633.19
564.354	4769.19
564.451	4729.19
564.548	4815.19
564.644	4729.19
564.741	4826.19
564.837	4788.19
564.934	4884.19
565.031	4820.19
565.127	4885.19
565.224	5052.19
565.32	5284.19
565.417	5107.19
565.513	5340.19
565.61	5375.19
565.706	5525.19
565.803	5492.19
565.899	5533.19
565.996	5763.19
566.092	5812.19
566.189	5972.19
566.285	6169.19
566.382	6379.19
566.478	6700.19
566.574	6627.19
566.671	6701.19
566.767	6875.19
566.864	6619.19
566.96	6815.19
567.056	6786.19
567.153	7043.19
567.249	7061.19
567.345	7246.19
567.442	7338.19
567.538	7507.19
567.634	7536.19
567.731	7656.19
567.827	7672.19
567.923	7553.19
568.019	7252.19
568.116	6988.19
568.212	6649.19
568.308	6645.19
568.404	6382.19
568.501	6061.19
568.597	5979.19
568.693	5769.19
568.789	6272.19
568.885	5322.19
568.982	5310.19
569.078	5105.19
569.174	5173.19
569.27	4944.19
569.366	4943.19
569.462	4919.19
569.558	4755.19
569.655	4677.19
569.751	4658.19
569.847	4608.19
569.943	4568.19
570.039	4534.19
570.135	4949.19
570.231	4507.19
570.327	4562.19
570.423	4568.19
570.519	4618.19
570.615	4389.19
570.711	4613.19
570.807	4592.19
570.903	4460.19
570.999	4511.19
571.095	4532.19
571.191	4338.19
571.287	4316.19
571.383	4395.19
571.479	4241.19
571.574	4342.19
571.67	4112.19
571.766	4336.19
571.862	4069.19
571.958	3929.19
572.054	4114.19
572.15	3879.19
572.246	3717.19
572.341	3996.19
572.437	3778.19
572.533	3830.19
572.629	3798.19
572.725	3770.19
572.82	3634.19
572.916	3831.19
573.012	3715.19
573.108	3726.19
573.203	3632.19
573.299	3610.19
573.395	3533.19
573.49	3518.19
573.586	3570.19
573.682	3557.19
573.778	3648.19
573.873	3517.19
573.969	3484.19
574.065	3470.19
574.16	3575.19
574.256	3590.19
574.351	3590.19
574.447	3419.19
574.543	3538.19
574.638	3540.19
574.734	3559.19
574.829	3730.19
574.925	3453.19
575.02	3382.19
575.116	3432.19
575.212	3410.19
575.307	3463.19
575.403	3342.19
575.498	3410.19
575.594	3354.19
575.689	3327.19
575.784	3354.19
575.88	3293.19
575.975	3345.19
576.071	3269.19
576.166	3147.19
576.262	3205.19
576.357	3192.19
576.452	3446.19
576.548	3156.19
576.643	3226.19
576.739	3298.19
576.834	3238.19
576.929	3225.19
577.025	3953.19
577.12	3143.19
577.215	3100.19
577.311	3209.19
577.406	3126.19
577.501	3228.19
577.597	3034.19
577.692	3221.19
577.787	3103.19
577.882	3035.19
577.978	3077.19
578.073	2974.19
578.168	2888.19
578.263	2952.19
578.358	2874.19
578.454	2896.19
578.549	2858.19
578.644	2784.19
578.739	2891.19
578.834	2768.19
578.929	2792.19
579.025	2737.19
579.12	2834.19
579.215	3062.19
579.31	2945.19
579.405	2797.19
579.5	2915.19
579.595	2853.19
579.69	2749.19
579.785	2786.19
579.88	2642.19
579.975	2703.19
580.07	2701.19
580.165	2696.19
580.26	2788.19
580.355	2681.19
580.45	2684.19
580.545	2589.19
580.64	2637.19
580.735	2839.19
580.83	2675.19
580.925	2528.19
581.02	2604.19
581.115	2514.19
581.21	2551.19
581.305	2639.19
581.4	2584.19
581.495	2564.19
581.589	2561.19
581.684	2493.19
581.779	2593.19
581.874	2566.19
581.969	2659.19
582.064	2420.19
582.158	2475.19
582.253	2515.19
582.348	2481.19
582.443	2492.19
582.537	2530.19
582.632	2674.19
582.727	2404.19
582.822	2426.19
582.916	2443.19
583.011	2333.19
583.106	2383.19
583.201	2449.19
583.295	2332.19
583.39	2352.19
583.485	2363.19
583.579	4208.19
583.674	2488.19
583.769	2648.19
583.863	2351.19
583.958	2334.19
584.052	2255.19
584.147	2318.19
584.242	2183.19
584.336	2281.19
584.431	2525.19
584.525	2176.19
584.62	2481.19
584.714	2373.19
584.809	2325.19
584.903	2331.19
584.998	2384.19
585.092	2206.19
585.187	2272.19
585.281	2178.19
585.376	2233.19
585.47	2271.19
585.565	2229.19
585.659	2219.19
585.754	2156.19
585.848	2196.19
585.942	2199.19
586.037	2151.19
586.131	4463.19
586.226	2370.19
586.32	2214.19
586.414	2048.19
586.509	2242.19
586.603	2294.19
586.697	2089.19
586.792	2087.19
586.886	2093.19
586.98	2201.19
587.075	2132.19
587.169	2158.19
587.263	2286.19
587.357	2162.19
587.452	2128.19
587.546	2202.19
587.64	2054.19
587.734	2081.19
587.829	2183.19
587.923	2104.19
588.017	2119.19
588.111	2170.19
588.205	2132.19
588.3	2031.19
588.394	2082.19
588.488	2012.19
588.582	2193.19
588.676	2293.19
588.77	2868.19
588.864	4608.19
588.958	4907.19
589.052	3988.19
589.147	3050.19
589.241	2577.19
589.335	2478.19
589.429	3376.19
589.523	3901.19
589.617	3713.19
589.711	2860.19
589.805	2430.19
589.899	2324.19
589.993	2081.19
590.087	2027.19
590.181	1985.19
590.275	2109.19
590.369	2037.19
590.462	1970.19
590.556	2064.19
590.65	1980.19
590.744	2015.19
590.838	2074.19
590.932	2035.19
591.026	2070.19
591.12	2190.19
591.214	2065.19
591.307	2059.19
591.401	2060.19
591.495	2129.19
591.589	1979.19
591.683	2027.19
591.777	2120.19
591.87	2435.19
591.964	2146.19
592.058	2131.19
592.152	2170.19
592.245	2159.19
592.339	2295.19
592.433	2343.19
592.527	2227.19
592.62	2154.19
592.714	2171.19
592.808	2345.19
592.901	2258.19
592.995	2260.19
593.089	2530.19
593.182	2351.19
593.276	2343.19
593.37	2238.19
593.463	2222.19
593.557	2299.19
593.65	2226.19
593.744	2282.19
593.837	2433.19
593.931	2247.19
594.025	5528.19
594.118	2571.19
594.212	2327.19
594.305	2161.19
594.399	2246.19
594.492	2522.19
594.586	2153.19
594.679	2077.19
594.773	2111.19
594.866	2151.19
594.96	2023.19
595.053	2006.19
595.146	1991.19
595.24	1940.19
595.333	1925.19
595.427	1859.19
595.52	1859.19
595.614	1974.19
595.707	1874.19
595.8	1791.19
595.894	1841.19
595.987	1807.19
596.08	1690.19
596.174	2178.19
596.267	1918.19
596.36	1897.19
596.454	1873.19
596.547	1862.19
596.64	1725.19
596.733	1664.19
596.827	1787.19
596.92	1743.19
597.013	1539.19
597.106	1578.19
597.2	1614.19
597.293	1545.19
597.386	1864.19
597.479	1747.19
597.572	1636.19
597.666	1508.19
597.759	1555.19
597.852	1710.19
597.945	1505.19
598.038	1512.19
598.131	1574.19
598.224	1498.19
598.317	1673.19
598.411	1624.19
598.504	1497.19
598.597	1550.19
598.69	1571.19
598.783	1496.19
598.876	1522.19
598.969	1584.19
599.062	1522.19
599.155	1635.19
599.248	1512.19
599.341	1590.19
599.434	1490.19
599.527	1540.19
599.62	1529.19
599.713	1472.19
599.806	1545.19
599.899	1716.19
599.991	1446.19
600.084	1744.19
600.177	1471.19
600.27	1453.19
600.363	1617.19
600.456	1466.19
600.549	1534.19
600.642	1393.19
600.734	1507.19
600.827	1489.19
600.92	1586.19
601.013	1472.19
601.106	1629.19
601.199	1490.19
601.291	1511.19
601.384	1479.19
601.477	1674.19
601.57	1537.19
601.662	1471.19
601.755	1527.19
601.848	1497.19
601.94	1428.19
602.033	1624.19
602.126	1483.19
602.219	1459.19
602.311	1607.19
602.404	1407.19
602.497	1427.19
602.589	1475.19
602.682	1531.19
602.774	1479.19
602.867	1460.19
602.96	1487.19
603.052	1426.19
603.145	1460.19
603.237	1461.19
603.33	1434.19
603.422	1546.19
603.515	1448.19
603.608	1490.19
603.7	1467.19
603.793	1476.19
603.885	1511.19
603.978	1440.19
604.07	1410.19
604.163	1381.19
604.255	1375.19
604.347	1366.19
604.44	1365.19
604.532	1445.19
604.625	1420.19
604.717	1419.19
604.81	1426.19
604.902	1361.19
604.994	1404.19
605.087	1398.19
605.179	1392.19
605.271	1423.19
605.364	1433.19
605.456	1436.19
605.548	1360.19
605.641	1432.19
605.733	1402.19
605.825	1377.19
605.918	1348.19
606.01	1504.19
606.102	1824.19
606.194	1438.19
606.287	1553.19
606.379	1308.19
606.471	1400.19
606.563	1528.19
606.655	1444.19
606.748	1463.19
606.84	1411.19
606.932	1395.19
607.024	1348.19
607.116	1390.19
607.208	1351.19
607.301	1439.19
607.393	1360.19
607.485	1299.19
607.577	1467.19
607.669	1464.19
607.761	1442.19
607.853	1577.19
607.945	1328.19
608.037	1351.19
608.129	1306.19
608.221	1319.19
608.313	1361.19
608.405	1380.19
608.497	1355.19
608.589	1316.19
608.681	1308.19
608.773	1396.19
608.865	1324.19
608.957	1370.19
609.049	1377.19
609.141	1410.19
609.233	1348.19
609.325	1292.19
609.417	1306.19
609.509	1471.19
609.601	1483.19
609.693	1404.19
609.784	1355.19
609.876	1390.19
609.968	1377.19
610.06	3454.19
610.152	1576.19
610.244	1573.19
610.335	1361.19
610.427	1356.19
610.519	1284.19
610.611	1283.19
610.702	1320.19
610.794	1291.19
610.886	1371.19
610.978	1302.19
611.069	1741.19
611.161	1240.19
611.253	1263.19
611.344	1230.19
611.436	1112.19
611.528	1220.19
611.62	1190.19
611.711	1129.19
611.803	1129.19
611.894	1160.19
611.986	1151.19
612.078	1122.19
612.169	1119.19
612.261	1050.19
612.352	1000.19
612.444	1030.19
612.536	1152.19
612.627	1001.19
612.719	980.19
612.81	946.19
612.902	907.19
612.993	924.19
613.085	1013.19
613.176	830.19
613.268	881.19
613.359	894.19
613.451	836.19
613.542	853.19
613.634	883.19
613.725	877.19
613.816	980.19
613.908	790.19
613.999	842.19
614.091	704.19
614.182	740.19
614.273	839.19
614.365	718.19
614.456	655.19
614.547	707.19
614.639	632.19
614.73	647.19
614.821	712.19
614.913	612.19
615.004	549.19
615.095	569.19
615.187	585.19
