Data from 14g_HRC06701__14__197.txt Node

Date: Thu Apr 18 01:58:08 CDT 2024
User: Estudiantes 2
Spectrometer: HR+C0670
Trigger mode: 4
Integration Time (sec): 1.000000E0
Scans to average: 1
Electric dark correction enabled: true
Nonlinearity correction enabled: false
Boxcar width: 0
XAxis mode: Wavelengths
Number of Pixels in Spectrum: 2048
>>>>>Begin Spectral Data<<<<<
407.81	-115.56
407.921	-115.56
408.032	-115.56
408.143	-131.56
408.254	-128.56
408.365	47.44
408.476	222.44
408.587	-17.56
408.699	27.44
408.81	-17.56
408.921	-63.56
409.032	-21.56
409.143	8.44
409.254	-7.56
409.365	104.44
409.476	-4.56
409.587	0.44
409.698	97.44
409.809	105.44
409.92	-26.56
410.031	-32.56
410.142	120.44
410.253	27.44
410.364	53.44
410.475	258.44
410.585	1233.44
410.696	1349.44
410.807	1305.44
410.918	1358.44
411.029	1404.44
411.14	1382.44
411.251	1398.44
411.362	1434.44
411.472	1437.44
411.583	1399.44
411.694	1473.44
411.805	1404.44
411.916	1484.44
412.026	1417.44
412.137	1369.44
412.248	1377.44
412.359	1381.44
412.47	1277.44
412.58	1308.44
412.691	1367.44
412.802	1395.44
412.912	1389.44
413.023	1398.44
413.134	1352.44
413.245	1405.44
413.355	1385.44
413.466	1350.44
413.577	1304.44
413.687	1456.44
413.798	1302.44
413.909	1373.44
414.019	1312.44
414.13	1424.44
414.24	1309.44
414.351	1384.44
414.462	1626.44
414.572	1413.44
414.683	1446.44
414.793	1395.44
414.904	1688.44
415.014	1374.44
415.125	1350.44
415.235	1346.44
415.346	1471.44
415.456	1482.44
415.567	1386.44
415.677	1346.44
415.788	1435.44
415.898	1357.44
416.009	1348.44
416.119	1402.44
416.23	1400.44
416.34	1278.44
416.45	1365.44
416.561	2215.44
416.671	1496.44
416.782	1282.44
416.892	1396.44
417.002	1517.44
417.113	1464.44
417.223	1395.44
417.333	1422.44
417.444	1406.44
417.554	1460.44
417.664	1484.44
417.775	1340.44
417.885	1438.44
417.995	1459.44
418.106	1551.44
418.216	1467.44
418.326	1497.44
418.436	1565.44
418.547	1485.44
418.657	1490.44
418.767	1637.44
418.877	1558.44
418.987	1498.44
419.098	1603.44
419.208	1533.44
419.318	1663.44
419.428	1619.44
419.538	1498.44
419.648	1552.44
419.759	1625.44
419.869	1587.44
419.979	1499.44
420.089	1508.44
420.199	1591.44
420.309	1597.44
420.419	1626.44
420.529	1596.44
420.639	1971.44
420.749	1635.44
420.859	1664.44
420.969	1650.44
421.079	1798.44
421.189	1622.44
421.299	1630.44
421.409	1522.44
421.519	1667.44
421.629	1772.44
421.739	1587.44
421.849	1607.44
421.959	1642.44
422.069	1661.44
422.179	1615.44
422.289	1625.44
422.399	1671.44
422.509	1746.44
422.619	4202.44
422.729	1943.44
422.838	1678.44
422.948	1807.44
423.058	1750.44
423.168	1740.44
423.278	1710.44
423.388	1805.44
423.498	1864.44
423.607	1840.44
423.717	2103.44
423.827	2133.44
423.937	1864.44
424.046	1925.44
424.156	2009.44
424.266	1836.44
424.376	2132.44
424.485	2066.44
424.595	1926.44
424.705	1903.44
424.815	2005.44
424.924	2385.44
425.034	2009.44
425.144	1961.44
425.253	1963.44
425.363	2057.44
425.473	2050.44
425.582	1938.44
425.692	1992.44
425.801	1917.44
425.911	2162.44
426.021	1941.44
426.13	2118.44
426.24	2341.44
426.349	2116.44
426.459	2082.44
426.568	2057.44
426.678	2136.44
426.787	2134.44
426.897	2148.44
427.006	2125.44
427.116	2213.44
427.225	2139.44
427.335	2229.44
427.444	2095.44
427.554	2142.44
427.663	2236.44
427.773	2133.44
427.882	2310.44
427.992	2298.44
428.101	2185.44
428.21	2212.44
428.32	2290.44
428.429	2213.44
428.539	2519.44
428.648	2223.44
428.757	2336.44
428.867	2326.44
428.976	2428.44
429.085	2407.44
429.195	2334.44
429.304	2328.44
429.413	2403.44
429.523	2392.44
429.632	2383.44
429.741	2424.44
429.85	2347.44
429.96	2391.44
430.069	2361.44
430.178	2338.44
430.287	2614.44
430.397	2451.44
430.506	2456.44
430.615	2358.44
430.724	2491.44
430.833	2446.44
430.943	2410.44
431.052	2473.44
431.161	2488.44
431.27	2518.44
431.379	2488.44
431.488	2683.44
431.597	2651.44
431.706	2689.44
431.816	2620.44
431.925	2565.44
432.034	2496.44
432.143	2630.44
432.252	2626.44
432.361	2726.44
432.47	2617.44
432.579	2555.44
432.688	2639.44
432.797	2633.44
432.906	2597.44
433.015	2682.44
433.124	2904.44
433.233	2677.44
433.342	2745.44
433.451	2635.44
433.56	2587.44
433.669	2655.44
433.778	2611.44
433.886	2670.44
433.995	2681.44
434.104	2844.44
434.213	2729.44
434.322	2745.44
434.431	2969.44
434.54	2821.44
434.649	2960.44
434.757	2965.44
434.866	2773.44
434.975	2892.44
435.084	2883.44
435.193	2757.44
435.301	2970.44
435.41	3005.44
435.519	3104.44
435.628	2571.44
435.737	2542.44
435.845	2512.44
435.954	2467.44
436.063	2526.44
436.171	2513.44
436.28	2429.44
436.389	2648.44
436.498	2499.44
436.606	2447.44
436.715	2589.44
436.823	2437.44
436.932	2340.44
437.041	2355.44
437.149	2436.44
437.258	2360.44
437.367	2300.44
437.475	2313.44
437.584	2611.44
437.692	2323.44
437.801	3787.44
437.91	2424.44
438.018	2206.44
438.127	2271.44
438.235	2383.44
438.344	2329.44
438.452	2262.44
438.561	2163.44
438.669	2248.44
438.778	2229.44
438.886	2212.44
438.995	2230.44
439.103	2217.44
439.212	2218.44
439.32	2288.44
439.428	2175.44
439.537	2207.44
439.645	2333.44
439.754	2310.44
439.862	2177.44
439.97	2283.44
440.079	2296.44
440.187	2172.44
440.295	2376.44
440.404	2320.44
440.512	2293.44
440.62	2282.44
440.729	2467.44
440.837	2458.44
440.945	3005.44
441.054	2478.44
441.162	2382.44
441.27	2434.44
441.378	2503.44
441.487	2533.44
441.595	2844.44
441.703	2536.44
441.811	2493.44
441.92	2403.44
442.028	2390.44
442.136	2478.44
442.244	2417.44
442.352	2451.44
442.461	2320.44
442.569	2322.44
442.677	2287.44
442.785	2414.44
442.893	2402.44
443.001	2242.44
443.109	2327.44
443.217	2358.44
443.325	2331.44
443.434	2789.44
443.542	2678.44
443.65	2391.44
443.758	2569.44
443.866	2510.44
443.974	2777.44
444.082	2535.44
444.19	2652.44
444.298	2645.44
444.406	2722.44
444.514	2710.44
444.622	2791.44
444.73	2776.44
444.838	2677.44
444.946	2835.44
445.054	2590.44
445.161	2618.44
445.269	2524.44
445.377	2535.44
445.485	2467.44
445.593	2462.44
445.701	2694.44
445.809	2508.44
445.917	2481.44
446.025	2399.44
446.132	2531.44
446.24	2503.44
446.348	2475.44
446.456	2383.44
446.564	2329.44
446.671	2459.44
446.779	2341.44
446.887	2321.44
446.995	2372.44
447.102	2478.44
447.21	2413.44
447.318	2384.44
447.426	2373.44
447.533	2568.44
447.641	3532.44
447.749	2522.44
447.856	2388.44
447.964	2415.44
448.072	2530.44
448.179	2344.44
448.287	2414.44
448.395	2489.44
448.502	2342.44
448.61	2453.44
448.718	2447.44
448.825	2522.44
448.933	2395.44
449.04	2378.44
449.148	2453.44
449.256	2453.44
449.363	2428.44
449.471	2534.44
449.578	2536.44
449.686	2378.44
449.793	2670.44
449.901	2493.44
450.008	2531.44
450.116	2577.44
450.223	2571.44
450.331	2682.44
450.438	2670.44
450.546	2782.44
450.653	2802.44
450.76	2811.44
450.868	2772.44
450.975	2943.44
451.083	2717.44
451.19	2859.44
451.297	2802.44
451.405	2829.44
451.512	2776.44
451.619	2918.44
451.727	2893.44
451.834	2743.44
451.941	2821.44
452.049	2754.44
452.156	2868.44
452.263	2901.44
452.371	2838.44
452.478	2885.44
452.585	3034.44
452.692	2887.44
452.8	2940.44
452.907	3064.44
453.014	3050.44
453.121	2904.44
453.229	2963.44
453.336	3111.44
453.443	2991.44
453.55	2956.44
453.657	3018.44
453.765	3101.44
453.872	2945.44
453.979	3102.44
454.086	2988.44
454.193	3090.44
454.3	2981.44
454.407	3222.44
454.514	3142.44
454.621	2996.44
454.729	3043.44
454.836	3056.44
454.943	3058.44
455.05	3229.44
455.157	3145.44
455.264	3029.44
455.371	3224.44
455.478	3149.44
455.585	3332.44
455.692	3211.44
455.799	3313.44
455.906	3115.44
456.013	3195.44
456.12	3221.44
456.227	3213.44
456.334	3214.44
456.44	3374.44
456.547	3238.44
456.654	3185.44
456.761	3263.44
456.868	3444.44
456.975	3413.44
457.082	3347.44
457.189	3250.44
457.296	3291.44
457.402	3334.44
457.509	3343.44
457.616	3469.44
457.723	3586.44
457.83	3477.44
457.936	3388.44
458.043	3758.44
458.15	3490.44
458.257	3619.44
458.363	3656.44
458.47	3672.44
458.577	3787.44
458.684	3674.44
458.79	3812.44
458.897	3929.44
459.004	3874.44
459.11	3930.44
459.217	3999.44
459.324	3971.44
459.43	4138.44
459.537	4454.44
459.644	4148.44
459.75	4100.44
459.857	4489.44
459.964	4214.44
460.07	4247.44
460.177	4293.44
460.283	4473.44
460.39	4520.44
460.496	4313.44
460.603	4313.44
460.71	4293.44
460.816	4252.44
460.923	4253.44
461.029	4397.44
461.136	4328.44
461.242	4243.44
461.349	4294.44
461.455	4332.44
461.562	4609.44
461.668	4505.44
461.774	4308.44
461.881	4348.44
461.987	4462.44
462.094	4491.44
462.2	4570.44
462.307	4708.44
462.413	4660.44
462.519	4760.44
462.626	5021.44
462.732	4875.44
462.838	5147.44
462.945	5333.44
463.051	5249.44
463.157	5225.44
463.264	5166.44
463.37	5066.44
463.476	4904.44
463.583	4804.44
463.689	4787.44
463.795	4898.44
463.901	4782.44
464.008	5006.44
464.114	4893.44
464.22	4753.44
464.326	4747.44
464.433	4696.44
464.539	4628.44
464.645	4486.44
464.751	4667.44
464.857	4374.44
464.963	4165.44
465.07	4184.44
465.176	4097.44
465.282	3911.44
465.388	3878.44
465.494	3555.44
465.6	3562.44
465.706	3548.44
465.812	3526.44
465.918	3534.44
466.024	3425.44
466.131	3537.44
466.237	3288.44
466.343	3311.44
466.449	3271.44
466.555	3139.44
466.661	3159.44
466.767	3075.44
466.873	3122.44
466.979	3264.44
467.085	3090.44
467.191	3151.44
467.296	3093.44
467.402	3119.44
467.508	3137.44
467.614	3196.44
467.72	2967.44
467.826	2972.44
467.932	2988.44
468.038	2830.44
468.144	2886.44
468.25	2846.44
468.355	2729.44
468.461	2910.44
468.567	2752.44
468.673	2821.44
468.779	2814.44
468.885	2810.44
468.99	2722.44
469.096	2786.44
469.202	2949.44
469.308	2819.44
469.413	2903.44
469.519	2838.44
469.625	2892.44
469.731	2920.44
469.836	2796.44
469.942	3106.44
470.048	2884.44
470.153	2857.44
470.259	2954.44
470.365	3044.44
470.47	2929.44
470.576	2863.44
470.682	2921.44
470.787	2743.44
470.893	2722.44
470.999	2815.44
471.104	2835.44
471.21	2683.44
471.315	2620.44
471.421	2585.44
471.527	2777.44
471.632	2744.44
471.738	2566.44
471.843	2491.44
471.949	2581.44
472.054	2574.44
472.16	2537.44
472.265	2585.44
472.371	2408.44
472.476	2452.44
472.582	2504.44
472.687	2519.44
472.793	2381.44
472.898	2436.44
473.003	2444.44
473.109	2343.44
473.214	2329.44
473.32	2370.44
473.425	2356.44
473.53	2405.44
473.636	2331.44
473.741	2389.44
473.847	2279.44
473.952	2400.44
474.057	2430.44
474.163	2371.44
474.268	2350.44
474.373	2458.44
474.478	2379.44
474.584	2278.44
474.689	2454.44
474.794	2376.44
474.9	2580.44
475.005	2356.44
475.11	2525.44
475.215	2320.44
475.321	2387.44
475.426	2598.44
475.531	2433.44
475.636	2317.44
475.741	2422.44
475.846	2415.44
475.952	2580.44
476.057	2464.44
476.162	2406.44
476.267	2581.44
476.372	2790.44
476.477	2400.44
476.582	2558.44
476.687	2392.44
476.793	2446.44
476.898	2458.44
477.003	2516.44
477.108	2532.44
477.213	2500.44
477.318	2535.44
477.423	2624.44
477.528	2603.44
477.633	2603.44
477.738	2634.44
477.843	2620.44
477.948	2582.44
478.053	2609.44
478.158	2727.44
478.263	2696.44
478.368	2645.44
478.473	2752.44
478.578	2757.44
478.682	2709.44
478.787	2857.44
478.892	2738.44
478.997	2831.44
479.102	2807.44
479.207	2748.44
479.312	2871.44
479.417	2797.44
479.521	2871.44
479.626	2888.44
479.731	2944.44
479.836	2934.44
479.941	2985.44
480.045	3000.44
480.15	3023.44
480.255	2980.44
480.36	2999.44
480.465	3059.44
480.569	3156.44
480.674	2878.44
480.779	2841.44
480.883	2894.44
480.988	2903.44
481.093	2897.44
481.197	2990.44
481.302	2930.44
481.407	2909.44
481.511	4106.44
481.616	2979.44
481.721	2903.44
481.825	3108.44
481.93	2835.44
482.035	2899.44
482.139	3014.44
482.244	2940.44
482.348	2909.44
482.453	2946.44
482.557	3123.44
482.662	2929.44
482.767	2914.44
482.871	3033.44
482.976	2963.44
483.08	3030.44
483.185	3259.44
483.289	3005.44
483.394	2946.44
483.498	3068.44
483.603	3067.44
483.707	3123.44
483.811	3241.44
483.916	3245.44
484.02	3117.44
484.125	3207.44
484.229	3277.44
484.333	3291.44
484.438	3264.44
484.542	3241.44
484.647	3217.44
484.751	3371.44
484.855	3336.44
484.96	3333.44
485.064	3403.44
485.168	3412.44
485.273	3437.44
485.377	3379.44
485.481	3716.44
485.585	3537.44
485.69	3454.44
485.794	3578.44
485.898	3562.44
486.002	3519.44
486.107	3651.44
486.211	3555.44
486.315	3622.44
486.419	3628.44
486.524	3612.44
486.628	3608.44
486.732	3492.44
486.836	3587.44
486.94	3755.44
487.044	3549.44
487.148	3560.44
487.253	3569.44
487.357	3519.44
487.461	3732.44
487.565	3598.44
487.669	3550.44
487.773	3554.44
487.877	3684.44
487.981	3688.44
488.085	3599.44
488.189	3570.44
488.293	3697.44
488.397	4014.44
488.501	3579.44
488.605	3559.44
488.709	3612.44
488.813	3622.44
488.917	3498.44
489.021	3625.44
489.125	3795.44
489.229	3580.44
489.333	3822.44
489.437	3666.44
489.541	3706.44
489.645	3541.44
489.749	3605.44
489.853	3672.44
489.956	3705.44
490.06	3618.44
490.164	3690.44
490.268	3642.44
490.372	3705.44
490.476	3659.44
490.579	3609.44
490.683	4326.44
490.787	3765.44
490.891	3662.44
490.995	3736.44
491.098	3653.44
491.202	3620.44
491.306	3749.44
491.41	3608.44
491.513	3622.44
491.617	3640.44
491.721	3849.44
491.824	3885.44
491.928	3749.44
492.032	3940.44
492.136	3696.44
492.239	3633.44
492.343	3728.44
492.446	4068.44
492.55	3736.44
492.654	3587.44
492.757	3615.44
492.861	3705.44
492.965	3642.44
493.068	3661.44
493.172	3706.44
493.275	3683.44
493.379	3712.44
493.482	3721.44
493.586	3817.44
493.689	3951.44
493.793	3672.44
493.896	3816.44
494	3807.44
494.103	3804.44
494.207	4007.44
494.31	4115.44
494.414	3766.44
494.517	3687.44
494.621	3605.44
494.724	3692.44
494.828	3610.44
494.931	3588.44
495.034	3723.44
495.138	3781.44
495.241	3536.44
495.345	4390.44
495.448	3749.44
495.551	3538.44
495.655	3612.44
495.758	3638.44
495.861	3513.44
495.965	3593.44
496.068	3722.44
496.171	3618.44
496.274	3605.44
496.378	3713.44
496.481	3669.44
496.584	3712.44
496.687	3733.44
496.791	3622.44
496.894	3683.44
496.997	3745.44
497.1	3778.44
497.204	3780.44
497.307	3692.44
497.41	4001.44
497.513	4008.44
497.616	3754.44
497.719	3881.44
497.823	3927.44
497.926	3882.44
498.029	4052.44
498.132	4089.44
498.235	4120.44
498.338	4222.44
498.441	4300.44
498.544	4388.44
498.647	4450.44
498.75	4741.44
498.853	4825.44
498.956	4766.44
499.059	5097.44
499.163	5043.44
499.266	5294.44
499.369	5500.44
499.471	5631.44
499.574	5896.44
499.677	6171.44
499.78	6339.44
499.883	6604.44
499.986	6975.44
500.089	7138.44
500.192	7243.44
500.295	7336.44
500.398	7278.44
500.501	7191.44
500.604	7001.44
500.707	6661.44
500.809	6470.44
500.912	6390.44
501.015	6144.44
501.118	5825.44
501.221	5599.44
501.324	5263.44
501.426	5117.44
501.529	4733.44
501.632	4666.44
501.735	4538.44
501.837	4347.44
501.94	4267.44
502.043	4252.44
502.146	4115.44
502.248	4094.44
502.351	3892.44
502.454	3860.44
502.557	3699.44
502.659	3634.44
502.762	3674.44
502.865	3485.44
502.967	3463.44
503.07	3510.44
503.173	3326.44
503.275	3383.44
503.378	3350.44
503.48	3222.44
503.583	3366.44
503.686	3298.44
503.788	3477.44
503.891	3186.44
503.993	3438.44
504.096	3239.44
504.198	3253.44
504.301	3199.44
504.403	3256.44
504.506	3221.44
504.608	3138.44
504.711	3124.44
504.813	3115.44
504.916	3114.44
505.018	2918.44
505.121	2838.44
505.223	2848.44
505.326	2838.44
505.428	2940.44
505.531	2757.44
505.633	2775.44
505.735	2676.44
505.838	2694.44
505.94	2678.44
506.042	2629.44
506.145	2538.44
506.247	2649.44
506.35	2606.44
506.452	2646.44
506.554	2582.44
506.656	2581.44
506.759	2534.44
506.861	2589.44
506.963	2499.44
507.066	2587.44
507.168	2607.44
507.27	2549.44
507.372	2526.44
507.475	2482.44
507.577	2559.44
507.679	2527.44
507.781	2447.44
507.883	2428.44
507.986	2446.44
508.088	2446.44
508.19	2422.44
508.292	2451.44
508.394	2413.44
508.496	2293.44
508.598	2350.44
508.701	2351.44
508.803	2394.44
508.905	2318.44
509.007	2453.44
509.109	2413.44
509.211	2362.44
509.313	2362.44
509.415	2357.44
509.517	2362.44
509.619	2321.44
509.721	2432.44
509.823	2310.44
509.925	2501.44
510.027	2368.44
510.129	2298.44
510.231	2353.44
510.333	2400.44
510.435	2330.44
510.537	2415.44
510.639	2394.44
510.741	2389.44
510.843	2376.44
510.945	2261.44
511.047	2444.44
511.148	2299.44
511.25	2303.44
511.352	2384.44
511.454	2211.44
511.556	2381.44
511.658	2330.44
511.76	2403.44
511.861	2448.44
511.963	2342.44
512.065	2376.44
512.167	2226.44
512.268	2461.44
512.37	2412.44
512.472	2314.44
512.574	2357.44
512.676	2460.44
512.777	2230.44
512.879	2286.44
512.981	2381.44
513.082	2409.44
513.184	2347.44
513.286	2813.44
513.387	2447.44
513.489	2482.44
513.591	2436.44
513.692	2511.44
513.794	2396.44
513.896	2334.44
513.997	2383.44
514.099	2338.44
514.2	2435.44
514.302	2460.44
514.404	2362.44
514.505	2438.44
514.607	2543.44
514.708	2458.44
514.81	2515.44
514.911	2513.44
515.013	2629.44
515.114	2520.44
515.216	2530.44
515.317	2613.44
515.419	2546.44
515.52	2600.44
515.622	2642.44
515.723	2588.44
515.825	2801.44
515.926	2731.44
516.027	2693.44
516.129	2685.44
516.23	2709.44
516.332	2764.44
516.433	2823.44
516.534	2853.44
516.636	2848.44
516.737	2826.44
516.838	3872.44
516.94	3158.44
517.041	3111.44
517.142	3213.44
517.244	3276.44
517.345	3231.44
517.446	3241.44
517.547	3391.44
517.649	3331.44
517.75	3381.44
517.851	3293.44
517.952	3520.44
518.054	3213.44
518.155	3329.44
518.256	3125.44
518.357	3227.44
518.458	3036.44
518.56	3062.44
518.661	3002.44
518.762	2973.44
518.863	3056.44
518.964	3032.44
519.065	2863.44
519.166	2887.44
519.268	2862.44
519.369	3044.44
519.47	2818.44
519.571	2863.44
519.672	2669.44
519.773	2752.44
519.874	2883.44
519.975	2805.44
520.076	2753.44
520.177	2741.44
520.278	2807.44
520.379	2778.44
520.48	2575.44
520.581	2718.44
520.682	2652.44
520.783	2697.44
520.884	2791.44
520.985	2667.44
521.086	2728.44
521.187	2710.44
521.288	2674.44
521.389	2611.44
521.489	2644.44
521.59	2647.44
521.691	2672.44
521.792	2643.44
521.893	2877.44
521.994	2830.44
522.095	2666.44
522.195	2870.44
522.296	2775.44
522.397	2817.44
522.498	2771.44
522.599	2649.44
522.699	2667.44
522.8	2727.44
522.901	2822.44
523.002	2677.44
523.102	2774.44
523.203	2689.44
523.304	2844.44
523.405	2634.44
523.505	2686.44
523.606	2690.44
523.707	2717.44
523.807	2747.44
523.908	2763.44
524.009	2787.44
524.109	2734.44
524.21	2683.44
524.31	2790.44
524.411	2855.44
524.512	2884.44
524.612	2738.44
524.713	2861.44
524.813	2743.44
524.914	2939.44
525.014	8139.44
525.115	3193.44
525.216	2738.44
525.316	2747.44
525.417	2706.44
525.517	2756.44
525.618	2709.44
525.718	2732.44
525.819	2818.44
525.919	2754.44
526.019	2720.44
526.12	2795.44
526.22	2610.44
526.321	2683.44
526.421	2695.44
526.522	2733.44
526.622	2624.44
526.722	2627.44
526.823	2714.44
526.923	2695.44
527.023	2751.44
527.124	2699.44
527.224	2774.44
527.324	2657.44
527.425	2746.44
527.525	2629.44
527.625	2666.44
527.726	2687.44
527.826	2752.44
527.926	2629.44
528.026	2682.44
528.127	2746.44
528.227	2695.44
528.327	2802.44
528.427	2693.44
528.528	2690.44
528.628	2763.44
528.728	2705.44
528.828	2720.44
528.928	2808.44
529.029	2680.44
529.129	2664.44
529.229	2713.44
529.329	2669.44
529.429	2766.44
529.529	2797.44
529.629	2778.44
529.729	2750.44
529.829	2818.44
529.93	2742.44
530.03	2759.44
530.13	2657.44
530.23	2591.44
530.33	2777.44
530.43	2602.44
530.53	2581.44
530.63	2723.44
530.73	2580.44
530.83	2532.44
530.93	2499.44
531.03	2552.44
531.13	2684.44
531.23	2553.44
531.33	2661.44
531.429	2652.44
531.529	2623.44
531.629	2692.44
531.729	2489.44
531.829	2467.44
531.929	2577.44
532.029	2608.44
532.129	2453.44
532.229	2569.44
532.328	2578.44
532.428	2508.44
532.528	2487.44
532.628	2523.44
532.728	2531.44
532.827	2393.44
532.927	2592.44
533.027	2450.44
533.127	2574.44
533.227	2503.44
533.326	2571.44
533.426	2407.44
533.526	2573.44
533.625	2698.44
533.725	2701.44
533.825	2482.44
533.924	2479.44
534.024	2301.44
534.124	2327.44
534.223	2484.44
534.323	2667.44
534.423	2415.44
534.522	2386.44
534.622	2296.44
534.722	2360.44
534.821	2414.44
534.921	2384.44
535.02	2260.44
535.12	2420.44
535.219	2476.44
535.319	2411.44
535.419	2326.44
535.518	2305.44
535.618	2391.44
535.717	2374.44
535.817	2278.44
535.916	2200.44
536.016	2319.44
536.115	2134.44
536.215	2224.44
536.314	2133.44
536.413	2176.44
536.513	2275.44
536.612	2163.44
536.712	2078.44
536.811	2199.44
536.91	2102.44
537.01	2087.44
537.109	2151.44
537.209	2206.44
537.308	2079.44
537.407	2148.44
537.507	2161.44
537.606	2093.44
537.705	2188.44
537.805	2198.44
537.904	2030.44
538.003	2049.44
538.102	2233.44
538.202	2076.44
538.301	2123.44
538.4	2175.44
538.499	2090.44
538.599	2088.44
538.698	2271.44
538.797	2010.44
538.896	2087.44
538.995	2004.44
539.095	2063.44
539.194	2254.44
539.293	2072.44
539.392	2041.44
539.491	2025.44
539.59	2000.44
539.689	2137.44
539.789	2091.44
539.888	1868.44
539.987	1900.44
540.086	2035.44
540.185	1951.44
540.284	2046.44
540.383	2023.44
540.482	1864.44
540.581	1963.44
540.68	2008.44
540.779	2031.44
540.878	2002.44
540.977	2024.44
541.076	1917.44
541.175	2006.44
541.274	2180.44
541.373	2101.44
541.472	2007.44
541.571	1819.44
541.67	3245.44
541.769	2076.44
541.868	1986.44
541.966	2048.44
542.065	1899.44
542.164	1901.44
542.263	1928.44
542.362	1963.44
542.461	1995.44
542.56	1911.44
542.658	1997.44
542.757	1847.44
542.856	1831.44
542.955	1907.44
543.054	1783.44
543.152	1941.44
543.251	1851.44
543.35	2007.44
543.449	1922.44
543.547	1892.44
543.646	1838.44
543.745	1907.44
543.843	1987.44
543.942	1913.44
544.041	1892.44
544.14	1960.44
544.238	1927.44
544.337	2053.44
544.436	1919.44
544.534	2088.44
544.633	1918.44
544.731	1894.44
544.83	1945.44
544.929	1949.44
545.027	1916.44
545.126	1880.44
545.224	1939.44
545.323	1870.44
545.421	1872.44
545.52	1926.44
545.619	1873.44
545.717	1863.44
545.816	1964.44
545.914	1951.44
546.013	2124.44
546.111	2079.44
546.209	1927.44
546.308	1878.44
546.406	1842.44
546.505	2096.44
546.603	1943.44
546.702	1837.44
546.8	1952.44
546.899	1855.44
546.997	1933.44
547.095	2008.44
547.194	1900.44
547.292	1959.44
547.39	2007.44
547.489	1807.44
547.587	2176.44
547.685	1883.44
547.784	2126.44
547.882	1983.44
547.98	1838.44
548.079	2002.44
548.177	1818.44
548.275	1876.44
548.373	2132.44
548.472	1779.44
548.57	1807.44
548.668	1941.44
548.766	1806.44
548.864	2020.44
548.963	1899.44
549.061	2013.44
549.159	1851.44
549.257	1964.44
549.355	1934.44
549.454	1856.44
549.552	1998.44
549.65	1957.44
549.748	1788.44
549.846	1819.44
549.944	1934.44
550.042	1780.44
550.14	1841.44
550.238	1906.44
550.336	1772.44
550.434	1762.44
550.532	1795.44
550.631	1923.44
550.729	1869.44
550.827	1904.44
550.925	1882.44
551.023	1805.44
551.121	1788.44
551.218	1851.44
551.316	1781.44
551.414	1815.44
551.512	1735.44
551.61	1853.44
551.708	1868.44
551.806	1880.44
551.904	1856.44
552.002	1773.44
552.1	1841.44
552.198	1879.44
552.296	2065.44
552.393	1995.44
552.491	2118.44
552.589	2042.44
552.687	2093.44
552.785	2048.44
552.882	2088.44
552.98	2234.44
553.078	2111.44
553.176	2098.44
553.274	1922.44
553.371	1980.44
553.469	2044.44
553.567	1980.44
553.665	1941.44
553.762	2436.44
553.86	2087.44
553.958	1985.44
554.055	1963.44
554.153	2011.44
554.251	1907.44
554.348	1951.44
554.446	1902.44
554.544	1917.44
554.641	2193.44
554.739	1876.44
554.837	1878.44
554.934	1881.44
555.032	1913.44
555.129	1818.44
555.227	2072.44
555.324	4767.44
555.422	2047.44
555.519	1713.44
555.617	1800.44
555.715	1763.44
555.812	2175.44
555.91	1703.44
556.007	1859.44
556.105	1726.44
556.202	1756.44
556.299	1709.44
556.397	1685.44
556.494	1682.44
556.592	1746.44
556.689	1817.44
556.787	1765.44
556.884	1711.44
556.981	1756.44
557.079	1697.44
557.176	1777.44
557.273	1797.44
557.371	1764.44
557.468	1675.44
557.566	1841.44
557.663	1706.44
557.76	1773.44
557.857	1746.44
557.955	1741.44
558.052	1818.44
558.149	1880.44
558.247	1848.44
558.344	1635.44
558.441	1671.44
558.538	1759.44
558.636	1714.44
558.733	1737.44
558.83	1807.44
558.927	1722.44
559.024	1713.44
559.122	1714.44
559.219	1745.44
559.316	1769.44
559.413	1840.44
559.51	1766.44
559.607	1689.44
559.704	1765.44
559.801	1830.44
559.899	1710.44
559.996	1940.44
560.093	1813.44
560.19	1702.44
560.287	1803.44
560.384	1941.44
560.481	1735.44
560.578	1739.44
560.675	1710.44
560.772	1827.44
560.869	1722.44
560.966	1900.44
561.063	1757.44
561.16	1821.44
561.257	1820.44
561.354	1765.44
561.451	1745.44
561.548	1734.44
561.645	1985.44
561.742	1782.44
561.838	1776.44
561.935	1815.44
562.032	1779.44
562.129	1760.44
562.226	1816.44
562.323	1786.44
562.42	1842.44
562.516	1750.44
562.613	1814.44
562.71	1722.44
562.807	2517.44
562.904	1833.44
563	1795.44
563.097	1771.44
563.194	1789.44
563.291	1802.44
563.387	1749.44
563.484	1834.44
563.581	1853.44
563.678	1636.44
563.774	2140.44
563.871	1909.44
563.968	1842.44
564.064	1884.44
564.161	1908.44
564.258	1822.44
564.354	1855.44
564.451	1973.44
564.548	1943.44
564.644	1920.44
564.741	1955.44
564.837	1915.44
564.934	1949.44
565.031	1992.44
565.127	2020.44
565.224	2044.44
565.32	2231.44
565.417	2095.44
565.513	2106.44
565.61	2152.44
565.706	2266.44
565.803	2258.44
565.899	2226.44
565.996	2221.44
566.092	2271.44
566.189	2319.44
566.285	2426.44
566.382	2477.44
566.478	2584.44
566.574	2639.44
566.671	2621.44
566.767	2625.44
566.864	2522.44
566.96	2625.44
567.056	2599.44
567.153	2767.44
567.249	2705.44
567.345	2869.44
567.442	2856.44
567.538	2917.44
567.634	2944.44
567.731	2809.44
567.827	2957.44
567.923	3002.44
568.019	2743.44
568.116	2599.44
568.212	2612.44
568.308	2658.44
568.404	2495.44
568.501	2458.44
568.597	2387.44
568.693	2330.44
568.789	2841.44
568.885	2197.44
568.982	2125.44
569.078	2034.44
569.174	2119.44
569.27	1996.44
569.366	2021.44
569.462	1965.44
569.558	1942.44
569.655	1949.44
569.751	1835.44
569.847	1902.44
569.943	1824.44
570.039	1777.44
570.135	2271.44
570.231	1772.44
570.327	1945.44
570.423	1931.44
570.519	1850.44
570.615	1744.44
570.711	1890.44
570.807	1907.44
570.903	1779.44
570.999	1890.44
571.095	1927.44
571.191	1768.44
571.287	1853.44
571.383	1880.44
571.479	1766.44
571.574	1841.44
571.67	1722.44
571.766	1896.44
571.862	1619.44
571.958	1691.44
572.054	1748.44
572.15	1532.44
572.246	1528.44
572.341	1736.44
572.437	1587.44
572.533	1671.44
572.629	1628.44
572.725	1546.44
572.82	1576.44
572.916	1674.44
573.012	1520.44
573.108	1629.44
573.203	1535.44
573.299	1485.44
573.395	1422.44
573.49	1397.44
573.586	1479.44
573.682	1492.44
573.778	1653.44
573.873	1451.44
573.969	1420.44
574.065	1435.44
574.16	1517.44
574.256	1475.44
574.351	1490.44
574.447	1491.44
574.543	1448.44
574.638	1561.44
574.734	1508.44
574.829	1639.44
574.925	1466.44
575.02	1414.44
575.116	1462.44
575.212	1479.44
575.307	1535.44
575.403	1459.44
575.498	1464.44
575.594	1406.44
575.689	1491.44
575.784	1420.44
575.88	1415.44
575.975	1484.44
576.071	1387.44
576.166	1299.44
576.262	1360.44
576.357	1357.44
576.452	1513.44
576.548	1411.44
576.643	1375.44
576.739	1384.44
576.834	1378.44
576.929	1422.44
577.025	1995.44
577.12	1336.44
577.215	1287.44
577.311	1385.44
577.406	1353.44
577.501	1443.44
577.597	1262.44
577.692	1433.44
577.787	1391.44
577.882	1269.44
577.978	1302.44
578.073	1227.44
578.168	1239.44
578.263	1264.44
578.358	1204.44
578.454	1230.44
578.549	1217.44
578.644	1135.44
578.739	1250.44
578.834	1227.44
578.929	1156.44
579.025	1184.44
579.12	1295.44
579.215	1418.44
579.31	1334.44
579.405	1151.44
579.5	1243.44
579.595	1150.44
579.69	1168.44
579.785	1177.44
579.88	1126.44
579.975	1110.44
580.07	1160.44
580.165	1180.44
580.26	1255.44
580.355	1196.44
580.45	1076.44
580.545	1107.44
580.64	1187.44
580.735	1244.44
580.83	1200.44
580.925	1082.44
581.02	1067.44
581.115	1109.44
581.21	1066.44
581.305	1212.44
581.4	1095.44
581.495	1111.44
581.589	1103.44
581.684	1051.44
581.779	1131.44
581.874	1153.44
581.969	1162.44
582.064	1038.44
582.158	1054.44
582.253	1035.44
582.348	1019.44
582.443	1083.44
582.537	1069.44
582.632	1237.44
582.727	1067.44
582.822	1030.44
582.916	993.44
583.011	1029.44
583.106	1155.44
583.201	1008.44
583.295	1012.44
583.39	984.44
583.485	920.44
583.579	3159.44
583.674	1275.44
583.769	1276.44
583.863	1042.44
583.958	1049.44
584.052	978.44
584.147	955.44
584.242	949.44
584.336	1027.44
584.431	1167.44
584.525	989.44
584.62	1135.44
584.714	1074.44
584.809	988.44
584.903	977.44
584.998	1070.44
585.092	848.44
585.187	918.44
585.281	978.44
585.376	1022.44
585.47	1005.44
585.565	984.44
585.659	888.44
585.754	916.44
585.848	1019.44
585.942	980.44
586.037	927.44
586.131	3137.44
586.226	1135.44
586.32	1035.44
586.414	887.44
586.509	1078.44
586.603	1028.44
586.697	919.44
586.792	922.44
586.886	884.44
586.98	1059.44
587.075	910.44
587.169	934.44
587.263	1129.44
587.357	958.44
587.452	920.44
587.546	976.44
587.64	879.44
587.734	1004.44
587.829	936.44
587.923	871.44
588.017	1007.44
588.111	905.44
588.205	964.44
588.3	946.44
588.394	879.44
588.488	826.44
588.582	958.44
588.676	1034.44
588.77	1232.44
588.864	2081.44
588.958	2204.44
589.052	1772.44
589.147	1485.44
589.241	1222.44
589.335	1059.44
589.429	1510.44
589.523	1790.44
589.617	1671.44
589.711	1340.44
589.805	1125.44
589.899	1094.44
589.993	891.44
590.087	815.44
590.181	846.44
590.275	903.44
590.369	870.44
590.462	843.44
590.556	840.44
590.65	815.44
590.744	897.44
590.838	808.44
590.932	809.44
591.026	942.44
591.12	1010.44
591.214	839.44
591.307	909.44
591.401	938.44
591.495	920.44
591.589	883.44
591.683	920.44
591.777	947.44
591.87	1270.44
591.964	1003.44
592.058	906.44
592.152	945.44
592.245	907.44
592.339	1042.44
592.433	1012.44
592.527	947.44
592.62	916.44
592.714	983.44
592.808	995.44
592.901	1049.44
592.995	929.44
593.089	1167.44
593.182	1064.44
593.276	946.44
593.37	868.44
593.463	946.44
593.557	952.44
593.65	923.44
593.744	985.44
593.837	1056.44
593.931	904.44
594.025	4566.44
594.118	1329.44
594.212	899.44
594.305	887.44
594.399	988.44
594.492	1218.44
594.586	884.44
594.679	867.44
594.773	860.44
594.866	942.44
594.96	917.44
595.053	823.44
595.146	815.44
595.24	793.44
595.333	860.44
595.427	727.44
595.52	810.44
595.614	1004.44
595.707	841.44
595.8	734.44
595.894	814.44
595.987	778.44
596.08	697.44
596.174	1109.44
596.267	884.44
596.36	883.44
596.454	900.44
596.547	874.44
596.64	738.44
596.733	696.44
596.827	855.44
596.92	766.44
597.013	627.44
597.106	651.44
597.2	714.44
597.293	662.44
597.386	891.44
597.479	840.44
597.572	718.44
597.666	648.44
597.759	739.44
597.852	770.44
597.945	603.44
598.038	667.44
598.131	682.44
598.224	670.44
598.317	778.44
598.411	751.44
598.504	629.44
598.597	748.44
598.69	651.44
598.783	643.44
598.876	681.44
598.969	746.44
599.062	589.44
599.155	683.44
599.248	693.44
599.341	685.44
599.434	636.44
599.527	767.44
599.62	633.44
599.713	576.44
599.806	731.44
599.899	837.44
599.991	617.44
600.084	852.44
600.177	651.44
600.27	619.44
600.363	825.44
600.456	693.44
600.549	660.44
600.642	602.44
600.734	643.44
600.827	639.44
600.92	717.44
601.013	633.44
601.106	731.44
601.199	618.44
601.291	616.44
601.384	699.44
601.477	845.44
601.57	730.44
601.662	626.44
601.755	618.44
601.848	668.44
601.94	634.44
602.033	761.44
602.126	640.44
602.219	611.44
602.311	735.44
602.404	594.44
602.497	584.44
602.589	646.44
602.682	637.44
602.774	681.44
602.867	686.44
602.96	625.44
603.052	659.44
603.145	652.44
603.237	629.44
603.33	641.44
603.422	719.44
603.515	592.44
603.608	632.44
603.7	631.44
603.793	640.44
603.885	647.44
603.978	589.44
604.07	644.44
604.163	560.44
604.255	626.44
604.347	598.44
604.44	574.44
604.532	594.44
604.625	629.44
604.717	593.44
604.81	589.44
604.902	585.44
604.994	575.44
605.087	601.44
605.179	581.44
605.271	640.44
605.364	599.44
605.456	649.44
605.548	595.44
605.641	590.44
605.733	562.44
605.825	587.44
605.918	535.44
606.01	718.44
606.102	1066.44
606.194	655.44
606.287	714.44
606.379	541.44
606.471	647.44
606.563	663.44
606.655	638.44
606.748	682.44
606.84	566.44
606.932	643.44
607.024	581.44
607.116	528.44
607.208	552.44
607.301	638.44
607.393	605.44
607.485	595.44
607.577	614.44
607.669	719.44
607.761	634.44
607.853	823.44
607.945	586.44
608.037	561.44
608.129	580.44
608.221	575.44
608.313	563.44
608.405	607.44
608.497	573.44
608.589	610.44
608.681	609.44
608.773	670.44
608.865	642.44
608.957	559.44
609.049	564.44
609.141	687.44
609.233	542.44
609.325	510.44
609.417	523.44
609.509	668.44
609.601	691.44
609.693	686.44
609.784	595.44
609.876	574.44
609.968	627.44
610.06	2700.44
610.152	776.44
610.244	1334.44
610.335	658.44
610.427	606.44
610.519	571.44
610.611	584.44
610.702	566.44
610.794	561.44
610.886	589.44
610.978	594.44
611.069	1061.44
611.161	564.44
611.253	650.44
611.344	503.44
611.436	475.44
611.528	592.44
611.62	438.44
611.711	493.44
611.803	490.44
611.894	473.44
611.986	473.44
612.078	493.44
612.169	521.44
612.261	454.44
612.352	442.44
612.444	458.44
612.536	548.44
612.627	465.44
612.719	403.44
612.81	395.44
612.902	362.44
612.993	463.44
613.085	404.44
613.176	325.44
613.268	411.44
613.359	423.44
613.451	360.44
613.542	379.44
613.634	373.44
613.725	379.44
613.816	461.44
613.908	349.44
613.999	301.44
614.091	224.44
614.182	299.44
614.273	368.44
614.365	299.44
614.456	253.44
614.547	322.44
614.639	211.44
614.73	251.44
614.821	386.44
614.913	198.44
615.004	213.44
615.095	237.44
615.187	166.44
