Data from 14g_HRC06701__24__207.txt Node

Date: Thu Apr 18 01:58:18 CDT 2024
User: Estudiantes 2
Spectrometer: HR+C0670
Trigger mode: 4
Integration Time (sec): 1.000000E0
Scans to average: 1
Electric dark correction enabled: true
Nonlinearity correction enabled: false
Boxcar width: 0
XAxis mode: Wavelengths
Number of Pixels in Spectrum: 2048
>>>>>Begin Spectral Data<<<<<
407.81	-162.56
407.921	-162.56
408.032	-162.56
408.143	-89.56
408.254	-93.56
408.365	13.44
408.476	211.44
408.587	4.44
408.699	-13.56
408.81	-22.56
408.921	12.44
409.032	-78.56
409.143	14.44
409.254	59.44
409.365	62.44
409.476	-34.56
409.587	29.44
409.698	87.44
409.809	85.44
409.92	-39.56
410.031	-3.56
410.142	30.44
410.253	-1.56
410.364	64.44
410.475	2219.44
410.585	10694.44
410.696	11440.44
410.807	11044.44
410.918	11197.44
411.029	11400.44
411.14	11326.44
411.251	11333.44
411.362	11341.44
411.472	11595.44
411.583	11278.44
411.694	11689.44
411.805	11631.44
411.916	11817.44
412.026	11837.44
412.137	11724.44
412.248	11585.44
412.359	11718.44
412.47	11372.44
412.58	11248.44
412.691	11552.44
412.802	11248.44
412.912	11310.44
413.023	11233.44
413.134	11306.44
413.245	11255.44
413.355	11320.44
413.466	11265.44
413.577	11162.44
413.687	11348.44
413.798	10964.44
413.909	11452.44
414.019	11439.44
414.13	11492.44
414.24	11484.44
414.351	11550.44
414.462	11775.44
414.572	11549.44
414.683	11440.44
414.793	11398.44
414.904	11645.44
415.014	11493.44
415.125	11396.44
415.235	11511.44
415.346	11677.44
415.456	11651.44
415.567	11335.44
415.677	11341.44
415.788	11399.44
415.898	11283.44
416.009	11251.44
416.119	11537.44
416.23	11203.44
416.34	11176.44
416.45	11405.44
416.561	12236.44
416.671	11525.44
416.782	11372.44
416.892	11651.44
417.002	11542.44
417.113	11863.44
417.223	11670.44
417.333	11544.44
417.444	11782.44
417.554	12053.44
417.664	12064.44
417.775	11679.44
417.885	12148.44
417.995	12080.44
418.106	12542.44
418.216	12345.44
418.326	12640.44
418.436	12832.44
418.547	12881.44
418.657	12879.44
418.767	13119.44
418.877	13021.44
418.987	13199.44
419.098	13238.44
419.208	13310.44
419.318	13291.44
419.428	13211.44
419.538	12961.44
419.648	13165.44
419.759	13069.44
419.869	13060.44
419.979	13013.44
420.089	13208.44
420.199	13134.44
420.309	13247.44
420.419	13149.44
420.529	13207.44
420.639	13757.44
420.749	13376.44
420.859	13433.44
420.969	13577.44
421.079	13759.44
421.189	13431.44
421.299	13333.44
421.409	13365.44
421.519	13682.44
421.629	13938.44
421.739	13801.44
421.849	14003.44
421.959	13958.44
422.069	13999.44
422.179	14290.44
422.289	14326.44
422.399	14547.44
422.509	14547.44
422.619	14547.44
422.729	14547.44
422.838	14547.44
422.948	14547.44
423.058	14547.44
423.168	14547.44
423.278	14547.44
423.388	14547.44
423.498	14547.44
423.607	14547.44
423.717	14547.44
423.827	14547.44
423.937	14547.44
424.046	14547.44
424.156	14547.44
424.266	14547.44
424.376	14547.44
424.485	14547.44
424.595	14547.44
424.705	14547.44
424.815	14547.44
424.924	14547.44
425.034	14547.44
425.144	14547.44
425.253	14547.44
425.363	14547.44
425.473	14547.44
425.582	14547.44
425.692	14547.44
425.801	14547.44
425.911	14547.44
426.021	14547.44
426.13	14547.44
426.24	14547.44
426.349	14547.44
426.459	14547.44
426.568	14547.44
426.678	14547.44
426.787	14547.44
426.897	14547.44
427.006	14547.44
427.116	14547.44
427.225	14547.44
427.335	14547.44
427.444	14547.44
427.554	14547.44
427.663	14547.44
427.773	14547.44
427.882	14547.44
427.992	14547.44
428.101	14547.44
428.21	14547.44
428.32	14547.44
428.429	14547.44
428.539	14547.44
428.648	14547.44
428.757	14547.44
428.867	14547.44
428.976	14547.44
429.085	14547.44
429.195	14547.44
429.304	14547.44
429.413	14547.44
429.523	14547.44
429.632	14547.44
429.741	14547.44
429.85	14547.44
429.96	14547.44
430.069	14547.44
430.178	14547.44
430.287	14547.44
430.397	14547.44
430.506	14547.44
430.615	14547.44
430.724	14547.44
430.833	14547.44
430.943	14547.44
431.052	14547.44
431.161	14547.44
431.27	14547.44
431.379	14547.44
431.488	14547.44
431.597	14547.44
431.706	14547.44
431.816	14547.44
431.925	14547.44
432.034	14547.44
432.143	14547.44
432.252	14547.44
432.361	14547.44
432.47	14547.44
432.579	14547.44
432.688	14547.44
432.797	14547.44
432.906	14547.44
433.015	14547.44
433.124	14547.44
433.233	14547.44
433.342	14547.44
433.451	14547.44
433.56	14547.44
433.669	14547.44
433.778	14547.44
433.886	14547.44
433.995	14547.44
434.104	14547.44
434.213	14547.44
434.322	14547.44
434.431	14547.44
434.54	14547.44
434.649	14547.44
434.757	14547.44
434.866	14547.44
434.975	14547.44
435.084	14547.44
435.193	14547.44
435.301	14547.44
435.41	14547.44
435.519	14547.44
435.628	14547.44
435.737	14547.44
435.845	14547.44
435.954	14547.44
436.063	14547.44
436.171	14547.44
436.28	14547.44
436.389	14547.44
436.498	14547.44
436.606	14547.44
436.715	14547.44
436.823	14547.44
436.932	14547.44
437.041	14547.44
437.149	14547.44
437.258	14547.44
437.367	14547.44
437.475	14547.44
437.584	14547.44
437.692	14547.44
437.801	14547.44
437.91	14547.44
438.018	14547.44
438.127	14547.44
438.235	14547.44
438.344	14547.44
438.452	14547.44
438.561	14547.44
438.669	14547.44
438.778	14547.44
438.886	14547.44
438.995	14547.44
439.103	14547.44
439.212	14547.44
439.32	14547.44
439.428	14547.44
439.537	14547.44
439.645	14547.44
439.754	14547.44
439.862	14547.44
439.97	14547.44
440.079	14547.44
440.187	14547.44
440.295	14547.44
440.404	14547.44
440.512	14547.44
440.62	14547.44
440.729	14547.44
440.837	14547.44
440.945	14547.44
441.054	14547.44
441.162	14547.44
441.27	14547.44
441.378	14547.44
441.487	14547.44
441.595	14547.44
441.703	14547.44
441.811	14547.44
441.92	14547.44
442.028	14547.44
442.136	14547.44
442.244	14547.44
442.352	14547.44
442.461	14547.44
442.569	14547.44
442.677	14547.44
442.785	14547.44
442.893	14547.44
443.001	14547.44
443.109	14547.44
443.217	14547.44
443.325	14547.44
443.434	14547.44
443.542	14547.44
443.65	14547.44
443.758	14547.44
443.866	14547.44
443.974	14547.44
444.082	14547.44
444.19	14547.44
444.298	14547.44
444.406	14547.44
444.514	14547.44
444.622	14547.44
444.73	14547.44
444.838	14547.44
444.946	14547.44
445.054	14547.44
445.161	14547.44
445.269	14547.44
445.377	14547.44
445.485	14547.44
445.593	14547.44
445.701	14547.44
445.809	14547.44
445.917	14547.44
446.025	14547.44
446.132	14547.44
446.24	14547.44
446.348	14547.44
446.456	14547.44
446.564	14547.44
446.671	14547.44
446.779	14547.44
446.887	14547.44
446.995	14547.44
447.102	14547.44
447.21	14547.44
447.318	14547.44
447.426	14547.44
447.533	14547.44
447.641	14547.44
447.749	14547.44
447.856	14547.44
447.964	14547.44
448.072	14547.44
448.179	14547.44
448.287	14547.44
448.395	14547.44
448.502	14547.44
448.61	14547.44
448.718	14547.44
448.825	14547.44
448.933	14547.44
449.04	14547.44
449.148	14547.44
449.256	14547.44
449.363	14547.44
449.471	14547.44
449.578	14547.44
449.686	14547.44
449.793	14547.44
449.901	14547.44
450.008	14547.44
450.116	14547.44
450.223	14547.44
450.331	14547.44
450.438	14547.44
450.546	14547.44
450.653	14547.44
450.76	14547.44
450.868	14547.44
450.975	14547.44
451.083	14547.44
451.19	14547.44
451.297	14547.44
451.405	14547.44
451.512	14547.44
451.619	14547.44
451.727	14547.44
451.834	14547.44
451.941	14547.44
452.049	14547.44
452.156	14547.44
452.263	14547.44
452.371	14547.44
452.478	14547.44
452.585	14547.44
452.692	14547.44
452.8	14547.44
452.907	14547.44
453.014	14547.44
453.121	14547.44
453.229	14547.44
453.336	14547.44
453.443	14547.44
453.55	14547.44
453.657	14547.44
453.765	14547.44
453.872	14547.44
453.979	14547.44
454.086	14547.44
454.193	14547.44
454.3	14547.44
454.407	14547.44
454.514	14547.44
454.621	14547.44
454.729	14547.44
454.836	14547.44
454.943	14547.44
455.05	14547.44
455.157	14547.44
455.264	14547.44
455.371	14547.44
455.478	14547.44
455.585	14547.44
455.692	14547.44
455.799	14547.44
455.906	14547.44
456.013	14547.44
456.12	14547.44
456.227	14547.44
456.334	14547.44
456.44	14547.44
456.547	14547.44
456.654	14547.44
456.761	14547.44
456.868	14547.44
456.975	14547.44
457.082	14547.44
457.189	14547.44
457.296	14547.44
457.402	14547.44
457.509	14547.44
457.616	14547.44
457.723	14547.44
457.83	14547.44
457.936	14547.44
458.043	14547.44
458.15	14547.44
458.257	14547.44
458.363	14547.44
458.47	14547.44
458.577	14547.44
458.684	14547.44
458.79	14547.44
458.897	14547.44
459.004	14547.44
459.11	14547.44
459.217	14547.44
459.324	14547.44
459.43	14547.44
459.537	14547.44
459.644	14547.44
459.75	14547.44
459.857	14547.44
459.964	14547.44
460.07	14547.44
460.177	14547.44
460.283	14547.44
460.39	14547.44
460.496	14547.44
460.603	14547.44
460.71	14547.44
460.816	14547.44
460.923	14547.44
461.029	14547.44
461.136	14547.44
461.242	14547.44
461.349	14547.44
461.455	14547.44
461.562	14547.44
461.668	14547.44
461.774	14547.44
461.881	14547.44
461.987	14547.44
462.094	14547.44
462.2	14547.44
462.307	14547.44
462.413	14547.44
462.519	14547.44
462.626	14547.44
462.732	14547.44
462.838	14547.44
462.945	14547.44
463.051	14547.44
463.157	14547.44
463.264	14547.44
463.37	14547.44
463.476	14547.44
463.583	14547.44
463.689	14547.44
463.795	14547.44
463.901	14547.44
464.008	14547.44
464.114	14547.44
464.22	14547.44
464.326	14547.44
464.433	14547.44
464.539	14547.44
464.645	14547.44
464.751	14547.44
464.857	14547.44
464.963	14547.44
465.07	14547.44
465.176	14547.44
465.282	14547.44
465.388	14547.44
465.494	14547.44
465.6	14547.44
465.706	14547.44
465.812	14547.44
465.918	14547.44
466.024	14547.44
466.131	14547.44
466.237	14547.44
466.343	14547.44
466.449	14547.44
466.555	14547.44
466.661	14547.44
466.767	14547.44
466.873	14547.44
466.979	14547.44
467.085	14547.44
467.191	14547.44
467.296	14547.44
467.402	14547.44
467.508	14547.44
467.614	14547.44
467.72	14547.44
467.826	14547.44
467.932	14547.44
468.038	14547.44
468.144	14547.44
468.25	14547.44
468.355	14547.44
468.461	14547.44
468.567	14547.44
468.673	14547.44
468.779	14547.44
468.885	14547.44
468.99	14547.44
469.096	14547.44
469.202	14547.44
469.308	14547.44
469.413	14547.44
469.519	14547.44
469.625	14547.44
469.731	14547.44
469.836	14547.44
469.942	14547.44
470.048	14547.44
470.153	14547.44
470.259	14547.44
470.365	14547.44
470.47	14547.44
470.576	14547.44
470.682	14547.44
470.787	14547.44
470.893	14547.44
470.999	14547.44
471.104	14547.44
471.21	14547.44
471.315	14547.44
471.421	14547.44
471.527	14547.44
471.632	14547.44
471.738	14547.44
471.843	14547.44
471.949	14547.44
472.054	14547.44
472.16	14547.44
472.265	14547.44
472.371	14547.44
472.476	14547.44
472.582	14547.44
472.687	14547.44
472.793	14547.44
472.898	14547.44
473.003	14547.44
473.109	14547.44
473.214	14547.44
473.32	14547.44
473.425	14547.44
473.53	14547.44
473.636	14547.44
473.741	14547.44
473.847	14547.44
473.952	14547.44
474.057	14547.44
474.163	14547.44
474.268	14547.44
474.373	14547.44
474.478	14547.44
474.584	14547.44
474.689	14547.44
474.794	14547.44
474.9	14547.44
475.005	14547.44
475.11	14547.44
475.215	14547.44
475.321	14547.44
475.426	14547.44
475.531	14547.44
475.636	14547.44
475.741	14547.44
475.846	14547.44
475.952	14547.44
476.057	14547.44
476.162	14547.44
476.267	14547.44
476.372	14547.44
476.477	14547.44
476.582	14547.44
476.687	14547.44
476.793	14547.44
476.898	14547.44
477.003	14547.44
477.108	14547.44
477.213	14547.44
477.318	14547.44
477.423	14547.44
477.528	14547.44
477.633	14547.44
477.738	14547.44
477.843	14547.44
477.948	14547.44
478.053	14547.44
478.158	14547.44
478.263	14547.44
478.368	14547.44
478.473	14547.44
478.578	14547.44
478.682	14547.44
478.787	14547.44
478.892	14547.44
478.997	14547.44
479.102	14547.44
479.207	14547.44
479.312	14547.44
479.417	14547.44
479.521	14547.44
479.626	14547.44
479.731	14547.44
479.836	14547.44
479.941	14547.44
480.045	14547.44
480.15	14547.44
480.255	14547.44
480.36	14547.44
480.465	14547.44
480.569	14547.44
480.674	14547.44
480.779	14547.44
480.883	14547.44
480.988	14547.44
481.093	14547.44
481.197	14547.44
481.302	14547.44
481.407	14547.44
481.511	14547.44
481.616	14547.44
481.721	14547.44
481.825	14547.44
481.93	14547.44
482.035	14547.44
482.139	14547.44
482.244	14547.44
482.348	14547.44
482.453	14547.44
482.557	14547.44
482.662	14547.44
482.767	14547.44
482.871	14547.44
482.976	14547.44
483.08	14547.44
483.185	14547.44
483.289	14547.44
483.394	14547.44
483.498	14547.44
483.603	14547.44
483.707	14547.44
483.811	14547.44
483.916	14547.44
484.02	14547.44
484.125	14547.44
484.229	14547.44
484.333	14547.44
484.438	14547.44
484.542	14547.44
484.647	14547.44
484.751	14547.44
484.855	14547.44
484.96	14547.44
485.064	14547.44
485.168	14547.44
485.273	14547.44
485.377	14547.44
485.481	14547.44
485.585	14547.44
485.69	14547.44
485.794	14547.44
485.898	14547.44
486.002	14547.44
486.107	14547.44
486.211	14547.44
486.315	14547.44
486.419	14547.44
486.524	14547.44
486.628	14547.44
486.732	14547.44
486.836	14547.44
486.94	14547.44
487.044	14547.44
487.148	14547.44
487.253	14547.44
487.357	14547.44
487.461	14547.44
487.565	14547.44
487.669	14547.44
487.773	14547.44
487.877	14547.44
487.981	14547.44
488.085	14547.44
488.189	14547.44
488.293	14547.44
488.397	14547.44
488.501	14547.44
488.605	14547.44
488.709	14547.44
488.813	14547.44
488.917	14547.44
489.021	14547.44
489.125	14547.44
489.229	14547.44
489.333	14547.44
489.437	14547.44
489.541	14547.44
489.645	14547.44
489.749	14547.44
489.853	14547.44
489.956	14547.44
490.06	14547.44
490.164	14547.44
490.268	14547.44
490.372	14547.44
490.476	14547.44
490.579	14547.44
490.683	14547.44
490.787	14547.44
490.891	14547.44
490.995	14547.44
491.098	14547.44
491.202	14547.44
491.306	14547.44
491.41	14547.44
491.513	14547.44
491.617	14547.44
491.721	14547.44
491.824	14547.44
491.928	14547.44
492.032	14547.44
492.136	14547.44
492.239	14547.44
492.343	14547.44
492.446	14547.44
492.55	14547.44
492.654	14547.44
492.757	14547.44
492.861	14547.44
492.965	14547.44
493.068	14547.44
493.172	14547.44
493.275	14547.44
493.379	14547.44
493.482	14547.44
493.586	14547.44
493.689	14547.44
493.793	14547.44
493.896	14547.44
494	14547.44
494.103	14547.44
494.207	14547.44
494.31	14547.44
494.414	14547.44
494.517	14547.44
494.621	14547.44
494.724	14547.44
494.828	14547.44
494.931	14547.44
495.034	14547.44
495.138	14547.44
495.241	14547.44
495.345	14547.44
495.448	14547.44
495.551	14547.44
495.655	14547.44
495.758	14547.44
495.861	14547.44
495.965	14547.44
496.068	14547.44
496.171	14547.44
496.274	14547.44
496.378	14547.44
496.481	14547.44
496.584	14547.44
496.687	14547.44
496.791	14547.44
496.894	14547.44
496.997	14547.44
497.1	14547.44
497.204	14547.44
497.307	14547.44
497.41	14547.44
497.513	14547.44
497.616	14547.44
497.719	14547.44
497.823	14547.44
497.926	14547.44
498.029	14547.44
498.132	14547.44
498.235	14547.44
498.338	14547.44
498.441	14547.44
498.544	14547.44
498.647	14547.44
498.75	14547.44
498.853	14547.44
498.956	14547.44
499.059	14547.44
499.163	14547.44
499.266	14547.44
499.369	14547.44
499.471	14547.44
499.574	14547.44
499.677	14547.44
499.78	14547.44
499.883	14547.44
499.986	14547.44
500.089	14547.44
500.192	14547.44
500.295	14547.44
500.398	14547.44
500.501	14547.44
500.604	14547.44
500.707	14547.44
500.809	14547.44
500.912	14547.44
501.015	14547.44
501.118	14547.44
501.221	14547.44
501.324	14547.44
501.426	14547.44
501.529	14547.44
501.632	14547.44
501.735	14547.44
501.837	14547.44
501.94	14547.44
502.043	14547.44
502.146	14547.44
502.248	14547.44
502.351	14547.44
502.454	14547.44
502.557	14547.44
502.659	14547.44
502.762	14547.44
502.865	14547.44
502.967	14547.44
503.07	14547.44
503.173	14547.44
503.275	14547.44
503.378	14547.44
503.48	14547.44
503.583	14547.44
503.686	14547.44
503.788	14547.44
503.891	14547.44
503.993	14547.44
504.096	14547.44
504.198	14547.44
504.301	14547.44
504.403	14547.44
504.506	14547.44
504.608	14547.44
504.711	14547.44
504.813	14547.44
504.916	14547.44
505.018	14547.44
505.121	14547.44
505.223	14547.44
505.326	14547.44
505.428	14547.44
505.531	14547.44
505.633	14547.44
505.735	14547.44
505.838	14547.44
505.94	14547.44
506.042	14547.44
506.145	14547.44
506.247	14547.44
506.35	14547.44
506.452	14547.44
506.554	14547.44
506.656	14547.44
506.759	14547.44
506.861	14547.44
506.963	14547.44
507.066	14547.44
507.168	14547.44
507.27	14547.44
507.372	14547.44
507.475	14547.44
507.577	14547.44
507.679	14547.44
507.781	14547.44
507.883	14547.44
507.986	14547.44
508.088	14547.44
508.19	14547.44
508.292	14547.44
508.394	14547.44
508.496	14547.44
508.598	14547.44
508.701	14547.44
508.803	14547.44
508.905	14547.44
509.007	14547.44
509.109	14547.44
509.211	14547.44
509.313	14547.44
509.415	14547.44
509.517	14547.44
509.619	14547.44
509.721	14547.44
509.823	14547.44
509.925	14547.44
510.027	14547.44
510.129	14547.44
510.231	14547.44
510.333	14547.44
510.435	14547.44
510.537	14547.44
510.639	14547.44
510.741	14547.44
510.843	14547.44
510.945	14547.44
511.047	14547.44
511.148	14547.44
511.25	14547.44
511.352	14547.44
511.454	14547.44
511.556	14547.44
511.658	14547.44
511.76	14547.44
511.861	14547.44
511.963	14547.44
512.065	14547.44
512.167	14547.44
512.268	14547.44
512.37	14547.44
512.472	14547.44
512.574	14547.44
512.676	14547.44
512.777	14547.44
512.879	14547.44
512.981	14547.44
513.082	14547.44
513.184	14547.44
513.286	14547.44
513.387	14547.44
513.489	14547.44
513.591	14547.44
513.692	14547.44
513.794	14547.44
513.896	14547.44
513.997	14547.44
514.099	14547.44
514.2	14547.44
514.302	14547.44
514.404	14547.44
514.505	14547.44
514.607	14547.44
514.708	14547.44
514.81	14547.44
514.911	14547.44
515.013	14547.44
515.114	14547.44
515.216	14547.44
515.317	14547.44
515.419	14547.44
515.52	14547.44
515.622	14547.44
515.723	14547.44
515.825	14547.44
515.926	14547.44
516.027	14547.44
516.129	14547.44
516.23	14547.44
516.332	14547.44
516.433	14547.44
516.534	14547.44
516.636	14547.44
516.737	14547.44
516.838	14547.44
516.94	14547.44
517.041	14547.44
517.142	14547.44
517.244	14547.44
517.345	14547.44
517.446	14547.44
517.547	14547.44
517.649	14547.44
517.75	14547.44
517.851	14547.44
517.952	14547.44
518.054	14547.44
518.155	14547.44
518.256	14547.44
518.357	14547.44
518.458	14547.44
518.56	14547.44
518.661	14547.44
518.762	14547.44
518.863	14547.44
518.964	14547.44
519.065	14547.44
519.166	14547.44
519.268	14547.44
519.369	14547.44
519.47	14547.44
519.571	14547.44
519.672	14547.44
519.773	14547.44
519.874	14547.44
519.975	14547.44
520.076	14547.44
520.177	14547.44
520.278	14547.44
520.379	14547.44
520.48	14547.44
520.581	14547.44
520.682	14547.44
520.783	14547.44
520.884	14547.44
520.985	14547.44
521.086	14547.44
521.187	14547.44
521.288	14547.44
521.389	14547.44
521.489	14547.44
521.59	14547.44
521.691	14547.44
521.792	14547.44
521.893	14547.44
521.994	14547.44
522.095	14547.44
522.195	14547.44
522.296	14547.44
522.397	14547.44
522.498	14547.44
522.599	14547.44
522.699	14547.44
522.8	14547.44
522.901	14547.44
523.002	14547.44
523.102	14547.44
523.203	14547.44
523.304	14547.44
523.405	14547.44
523.505	14547.44
523.606	14547.44
523.707	14547.44
523.807	14547.44
523.908	14547.44
524.009	14547.44
524.109	14547.44
524.21	14547.44
524.31	14547.44
524.411	14547.44
524.512	14547.44
524.612	14547.44
524.713	14547.44
524.813	14547.44
524.914	14547.44
525.014	14547.44
525.115	14547.44
525.216	14547.44
525.316	14547.44
525.417	14547.44
525.517	14547.44
525.618	14547.44
525.718	14547.44
525.819	14547.44
525.919	14547.44
526.019	14547.44
526.12	14547.44
526.22	14547.44
526.321	14547.44
526.421	14547.44
526.522	14547.44
526.622	14547.44
526.722	14547.44
526.823	14547.44
526.923	14547.44
527.023	14547.44
527.124	14547.44
527.224	14547.44
527.324	14547.44
527.425	14547.44
527.525	14547.44
527.625	14547.44
527.726	14547.44
527.826	14547.44
527.926	14547.44
528.026	14547.44
528.127	14547.44
528.227	14547.44
528.327	14547.44
528.427	14547.44
528.528	14547.44
528.628	14547.44
528.728	14547.44
528.828	14547.44
528.928	14547.44
529.029	14547.44
529.129	14547.44
529.229	14547.44
529.329	14547.44
529.429	14547.44
529.529	14547.44
529.629	14547.44
529.729	14547.44
529.829	14547.44
529.93	14547.44
530.03	14547.44
530.13	14547.44
530.23	14547.44
530.33	14547.44
530.43	14547.44
530.53	14547.44
530.63	14547.44
530.73	14547.44
530.83	14547.44
530.93	14547.44
531.03	14547.44
531.13	14547.44
531.23	14547.44
531.33	14547.44
531.429	14547.44
531.529	14547.44
531.629	14547.44
531.729	14547.44
531.829	14547.44
531.929	14547.44
532.029	14547.44
532.129	14547.44
532.229	14547.44
532.328	14547.44
532.428	14547.44
532.528	14547.44
532.628	14547.44
532.728	14547.44
532.827	14547.44
532.927	14547.44
533.027	14547.44
533.127	14547.44
533.227	14547.44
533.326	14547.44
533.426	14547.44
533.526	14547.44
533.625	14547.44
533.725	14547.44
533.825	14547.44
533.924	14547.44
534.024	14547.44
534.124	14547.44
534.223	14547.44
534.323	14547.44
534.423	14547.44
534.522	14547.44
534.622	14547.44
534.722	14547.44
534.821	14547.44
534.921	14547.44
535.02	14547.44
535.12	14547.44
535.219	14547.44
535.319	14547.44
535.419	14547.44
535.518	14547.44
535.618	14547.44
535.717	14547.44
535.817	14547.44
535.916	14547.44
536.016	14547.44
536.115	14547.44
536.215	14547.44
536.314	14547.44
536.413	14547.44
536.513	14547.44
536.612	14547.44
536.712	14547.44
536.811	14547.44
536.91	14547.44
537.01	14547.44
537.109	14547.44
537.209	14547.44
537.308	14547.44
537.407	14547.44
537.507	14547.44
537.606	14547.44
537.705	14547.44
537.805	14547.44
537.904	14547.44
538.003	14547.44
538.102	14547.44
538.202	14547.44
538.301	14547.44
538.4	14547.44
538.499	14547.44
538.599	14547.44
538.698	14547.44
538.797	14547.44
538.896	14547.44
538.995	14547.44
539.095	14547.44
539.194	14547.44
539.293	14547.44
539.392	14547.44
539.491	14547.44
539.59	14547.44
539.689	14547.44
539.789	14547.44
539.888	14547.44
539.987	14547.44
540.086	14547.44
540.185	14547.44
540.284	14547.44
540.383	14547.44
540.482	14547.44
540.581	14547.44
540.68	14547.44
540.779	14547.44
540.878	14547.44
540.977	14547.44
541.076	14547.44
541.175	14547.44
541.274	14547.44
541.373	14547.44
541.472	14547.44
541.571	14547.44
541.67	14547.44
541.769	14547.44
541.868	14547.44
541.966	14547.44
542.065	14547.44
542.164	14547.44
542.263	14547.44
542.362	14547.44
542.461	14547.44
542.56	14547.44
542.658	14547.44
542.757	14547.44
542.856	14547.44
542.955	14547.44
543.054	14547.44
543.152	14547.44
543.251	14547.44
543.35	14547.44
543.449	14547.44
543.547	14547.44
543.646	14547.44
543.745	14547.44
543.843	14547.44
543.942	14547.44
544.041	14547.44
544.14	14547.44
544.238	14547.44
544.337	14547.44
544.436	14547.44
544.534	14547.44
544.633	14547.44
544.731	14547.44
544.83	14547.44
544.929	14547.44
545.027	14547.44
545.126	14547.44
545.224	14547.44
545.323	14547.44
545.421	14547.44
545.52	14547.44
545.619	14547.44
545.717	14547.44
545.816	14547.44
545.914	14547.44
546.013	14547.44
546.111	14547.44
546.209	14547.44
546.308	14547.44
546.406	14547.44
546.505	14547.44
546.603	14547.44
546.702	14547.44
546.8	14547.44
546.899	14547.44
546.997	14547.44
547.095	14547.44
547.194	14547.44
547.292	14547.44
547.39	14547.44
547.489	14547.44
547.587	14547.44
547.685	14547.44
547.784	14547.44
547.882	14547.44
547.98	14547.44
548.079	14547.44
548.177	14547.44
548.275	14547.44
548.373	14547.44
548.472	14547.44
548.57	14547.44
548.668	14547.44
548.766	14547.44
548.864	14547.44
548.963	14547.44
549.061	14547.44
549.159	14547.44
549.257	14547.44
549.355	14547.44
549.454	14547.44
549.552	14547.44
549.65	14547.44
549.748	14547.44
549.846	14547.44
549.944	14547.44
550.042	14547.44
550.14	14547.44
550.238	14547.44
550.336	14547.44
550.434	14547.44
550.532	14547.44
550.631	14547.44
550.729	14547.44
550.827	14547.44
550.925	14547.44
551.023	14547.44
551.121	14547.44
551.218	14547.44
551.316	14547.44
551.414	14547.44
551.512	14547.44
551.61	14547.44
551.708	14547.44
551.806	14547.44
551.904	14547.44
552.002	14547.44
552.1	14547.44
552.198	14547.44
552.296	14547.44
552.393	14547.44
552.491	14547.44
552.589	14547.44
552.687	14547.44
552.785	14547.44
552.882	14547.44
552.98	14547.44
553.078	14547.44
553.176	14547.44
553.274	14547.44
553.371	14547.44
553.469	14547.44
553.567	14547.44
553.665	14547.44
553.762	14547.44
553.86	14547.44
553.958	14547.44
554.055	14547.44
554.153	14547.44
554.251	14547.44
554.348	14547.44
554.446	14547.44
554.544	14547.44
554.641	14547.44
554.739	14547.44
554.837	14547.44
554.934	14547.44
555.032	14547.44
555.129	14547.44
555.227	14547.44
555.324	14547.44
555.422	14500.44
555.519	14379.44
555.617	14172.44
555.715	14050.44
555.812	14486.44
555.91	13905.44
556.007	14047.44
556.105	14065.44
556.202	14128.44
556.299	13894.44
556.397	13807.44
556.494	13752.44
556.592	13746.44
556.689	13749.44
556.787	13725.44
556.884	13472.44
556.981	13639.44
557.079	13520.44
557.176	13669.44
557.273	13498.44
557.371	13647.44
557.468	13498.44
557.566	13583.44
557.663	13560.44
557.76	13630.44
557.857	13590.44
557.955	13641.44
558.052	13599.44
558.149	13703.44
558.247	13681.44
558.344	13572.44
558.441	13421.44
558.538	13427.44
558.636	13573.44
558.733	13547.44
558.83	13672.44
558.927	13613.44
559.024	13408.44
559.122	13371.44
559.219	13498.44
559.316	13553.44
559.413	13831.44
559.51	13568.44
559.607	13494.44
559.704	13605.44
559.801	13770.44
559.899	13530.44
559.996	13921.44
560.093	13566.44
560.19	13611.44
560.287	13698.44
560.384	13769.44
560.481	13712.44
560.578	13642.44
560.675	13714.44
560.772	13743.44
560.869	13863.44
560.966	14016.44
561.063	13819.44
561.16	13866.44
561.257	13854.44
561.354	13806.44
561.451	13838.44
561.548	13910.44
561.645	14149.44
561.742	13825.44
561.838	13845.44
561.935	13999.44
562.032	13989.44
562.129	13992.44
562.226	14016.44
562.323	13976.44
562.42	14122.44
562.516	14070.44
562.613	14108.44
562.71	14200.44
562.807	14547.44
562.904	14198.44
563	14232.44
563.097	14464.44
563.194	14526.44
563.291	14493.44
563.387	14533.44
563.484	14547.44
563.581	14547.44
563.678	14521.44
563.774	14547.44
563.871	14547.44
563.968	14547.44
564.064	14547.44
564.161	14547.44
564.258	14547.44
564.354	14547.44
564.451	14547.44
564.548	14547.44
564.644	14547.44
564.741	14547.44
564.837	14547.44
564.934	14547.44
565.031	14547.44
565.127	14547.44
565.224	14547.44
565.32	14547.44
565.417	14547.44
565.513	14547.44
565.61	14547.44
565.706	14547.44
565.803	14547.44
565.899	14547.44
565.996	14547.44
566.092	14547.44
566.189	14547.44
566.285	14547.44
566.382	14547.44
566.478	14547.44
566.574	14547.44
566.671	14547.44
566.767	14547.44
566.864	14547.44
566.96	14547.44
567.056	14547.44
567.153	14547.44
567.249	14547.44
567.345	14547.44
567.442	14547.44
567.538	14547.44
567.634	14547.44
567.731	14547.44
567.827	14547.44
567.923	14547.44
568.019	14547.44
568.116	14547.44
568.212	14547.44
568.308	14547.44
568.404	14547.44
568.501	14547.44
568.597	14547.44
568.693	14547.44
568.789	14547.44
568.885	14547.44
568.982	14547.44
569.078	14547.44
569.174	14547.44
569.27	14547.44
569.366	14547.44
569.462	14547.44
569.558	14547.44
569.655	14547.44
569.751	14547.44
569.847	14547.44
569.943	14547.44
570.039	14547.44
570.135	14547.44
570.231	14547.44
570.327	14547.44
570.423	14547.44
570.519	14547.44
570.615	14547.44
570.711	14547.44
570.807	14547.44
570.903	14547.44
570.999	14547.44
571.095	14547.44
571.191	14547.44
571.287	14547.44
571.383	14547.44
571.479	14358.44
571.574	14400.44
571.67	13918.44
571.766	13993.44
571.862	13719.44
571.958	13536.44
572.054	13528.44
572.15	13313.44
572.246	13071.44
572.341	13328.44
572.437	13080.44
572.533	13191.44
572.629	12955.44
572.725	13002.44
572.82	12861.44
572.916	12715.44
573.012	12651.44
573.108	12684.44
573.203	12486.44
573.299	12394.44
573.395	12376.44
573.49	12132.44
573.586	12093.44
573.682	12196.44
573.778	12438.44
573.873	12078.44
573.969	11954.44
574.065	11928.44
574.16	12028.44
574.256	11889.44
574.351	12060.44
574.447	11986.44
574.543	11978.44
574.638	12045.44
574.734	11918.44
574.829	11986.44
574.925	11868.44
575.02	11703.44
575.116	11475.44
575.212	11465.44
575.307	11545.44
575.403	11333.44
575.498	11292.44
575.594	11308.44
575.689	11209.44
575.784	11068.44
575.88	11143.44
575.975	11104.44
576.071	10992.44
576.166	11026.44
576.262	10920.44
576.357	10856.44
576.452	10898.44
576.548	10860.44
576.643	10741.44
576.739	10811.44
576.834	10760.44
576.929	10639.44
577.025	11368.44
577.12	10539.44
577.215	10491.44
577.311	10488.44
577.406	10526.44
577.501	10420.44
577.597	10184.44
577.692	10384.44
577.787	10354.44
577.882	10050.44
577.978	10142.44
578.073	10103.44
578.168	9742.44
578.263	9775.44
578.358	9808.44
578.454	9813.44
578.549	9740.44
578.644	9643.44
578.739	9628.44
578.834	9596.44
578.929	9593.44
579.025	9568.44
579.12	9670.44
579.215	9650.44
579.31	9698.44
579.405	9250.44
579.5	9360.44
579.595	9286.44
579.69	9233.44
579.785	9215.44
579.88	9230.44
579.975	9177.44
580.07	9112.44
580.165	8971.44
580.26	9268.44
580.355	8932.44
580.45	9081.44
580.545	8937.44
580.64	8975.44
580.735	8905.44
580.83	8997.44
580.925	8757.44
581.02	8704.44
581.115	8645.44
581.21	8596.44
581.305	8637.44
581.4	8661.44
581.495	8548.44
581.589	8634.44
581.684	8535.44
581.779	8588.44
581.874	8565.44
581.969	8592.44
582.064	8394.44
582.158	8262.44
582.253	8283.44
582.348	8257.44
582.443	8273.44
582.537	8253.44
582.632	8437.44
582.727	8295.44
582.822	8177.44
582.916	8072.44
583.011	8106.44
583.106	8114.44
583.201	8073.44
583.295	8091.44
583.39	7968.44
583.485	7911.44
583.579	10087.44
583.674	8034.44
583.769	8060.44
583.863	7865.44
583.958	7991.44
584.052	7917.44
584.147	7779.44
584.242	7696.44
584.336	7805.44
584.431	7838.44
584.525	7701.44
584.62	7881.44
584.714	7677.44
584.809	7758.44
584.903	7653.44
584.998	7680.44
585.092	7586.44
585.187	7631.44
585.281	7491.44
585.376	7589.44
585.47	7701.44
585.565	7554.44
585.659	7347.44
585.754	7371.44
585.848	7436.44
585.942	7441.44
586.037	7452.44
586.131	9734.44
586.226	7417.44
586.32	7472.44
586.414	7217.44
586.509	7417.44
586.603	7416.44
586.697	7236.44
586.792	7160.44
586.886	7213.44
586.98	7273.44
587.075	7110.44
587.169	7117.44
587.263	7429.44
587.357	7152.44
587.452	7113.44
587.546	7154.44
587.64	7046.44
587.734	7174.44
587.829	7153.44
587.923	7070.44
588.017	7074.44
588.111	7150.44
588.205	7293.44
588.3	7168.44
588.394	7183.44
588.488	7416.44
588.582	7528.44
588.676	7984.44
588.77	10005.44
588.864	14547.44
588.958	14547.44
589.052	14393.44
589.147	10403.44
589.241	8669.44
589.335	8682.44
589.429	12292.44
589.523	14547.44
589.617	13084.44
589.711	10102.44
589.805	8129.44
589.899	7660.44
589.993	7329.44
590.087	7087.44
590.181	7020.44
590.275	7078.44
590.369	7041.44
590.462	6949.44
590.556	7044.44
590.65	6958.44
590.744	6837.44
590.838	6930.44
590.932	7006.44
591.026	6966.44
591.12	7150.44
591.214	7019.44
591.307	7076.44
591.401	6964.44
591.495	7112.44
591.589	7037.44
591.683	7100.44
591.777	7234.44
591.87	7733.44
591.964	7282.44
592.058	7242.44
592.152	7490.44
592.245	7310.44
592.339	7665.44
592.433	7742.44
592.527	7591.44
592.62	7738.44
592.714	7883.44
592.808	8045.44
592.901	7919.44
592.995	7885.44
593.089	8382.44
593.182	8178.44
593.276	8074.44
593.37	7992.44
593.463	8095.44
593.557	8131.44
593.65	8005.44
593.744	8104.44
593.837	8252.44
593.931	8138.44
594.025	11962.44
594.118	8382.44
594.212	8036.44
594.305	7989.44
594.399	7794.44
594.492	8115.44
594.586	7506.44
594.679	7298.44
594.773	7290.44
594.866	7270.44
594.96	7145.44
595.053	6898.44
595.146	6956.44
595.24	6892.44
595.333	6651.44
595.427	6471.44
595.52	6530.44
595.614	6653.44
595.707	6361.44
595.8	6221.44
595.894	6156.44
595.987	6050.44
596.08	6015.44
596.174	6324.44
596.267	6025.44
596.36	5965.44
596.454	6045.44
596.547	5867.44
596.64	5654.44
596.733	5762.44
596.827	5649.44
596.92	5615.44
597.013	5638.44
597.106	5494.44
597.2	5506.44
597.293	5428.44
597.386	5672.44
597.479	5521.44
597.572	5438.44
597.666	5298.44
597.759	5298.44
597.852	5383.44
597.945	5371.44
598.038	5311.44
598.131	5164.44
598.224	5331.44
598.317	5330.44
598.411	5245.44
598.504	5163.44
598.597	5244.44
598.69	5122.44
598.783	5181.44
598.876	5250.44
598.969	5192.44
599.062	5032.44
599.155	5244.44
599.248	5078.44
599.341	5066.44
599.434	5137.44
599.527	5042.44
599.62	5127.44
599.713	5032.44
599.806	5043.44
599.899	5172.44
599.991	4938.44
600.084	5282.44
600.177	4910.44
600.27	4953.44
600.363	5148.44
600.456	4939.44
600.549	5001.44
600.642	4921.44
600.734	4855.44
600.827	4910.44
600.92	5124.44
601.013	4906.44
601.106	4971.44
601.199	4895.44
601.291	4791.44
601.384	4757.44
601.477	5091.44
601.57	4988.44
601.662	4644.44
601.755	4778.44
601.848	4984.44
601.94	4636.44
602.033	4859.44
602.126	4777.44
602.219	4698.44
602.311	4806.44
602.404	4654.44
602.497	4744.44
602.589	4715.44
602.682	4564.44
602.774	4707.44
602.867	4680.44
602.96	4626.44
603.052	4744.44
603.145	4647.44
603.237	4617.44
603.33	4773.44
603.422	4768.44
603.515	4550.44
603.608	4693.44
603.7	4688.44
603.793	4621.44
603.885	4696.44
603.978	4687.44
604.07	4624.44
604.163	4550.44
604.255	4698.44
604.347	4419.44
604.44	4437.44
604.532	4576.44
604.625	4540.44
604.717	4485.44
604.81	4579.44
604.902	4485.44
604.994	4505.44
605.087	4487.44
605.179	4508.44
605.271	4484.44
605.364	4487.44
605.456	4639.44
605.548	4436.44
605.641	4491.44
605.733	4495.44
605.825	4436.44
605.918	4417.44
606.01	4802.44
606.102	4913.44
606.194	4434.44
606.287	4622.44
606.379	4437.44
606.471	4426.44
606.563	4452.44
606.655	4556.44
606.748	4477.44
606.84	4379.44
606.932	4535.44
607.024	4349.44
607.116	4330.44
607.208	4369.44
607.301	4395.44
607.393	4253.44
607.485	4286.44
607.577	4445.44
607.669	4479.44
607.761	4375.44
607.853	4765.44
607.945	4205.44
608.037	4307.44
608.129	4379.44
608.221	4290.44
608.313	4221.44
608.405	4381.44
608.497	4330.44
608.589	4189.44
608.681	4320.44
608.773	4273.44
608.865	4274.44
608.957	4234.44
609.049	4228.44
609.141	4405.44
609.233	4229.44
609.325	4265.44
609.417	4192.44
609.509	4296.44
609.601	4503.44
609.693	4268.44
609.784	4255.44
609.876	4268.44
609.968	4433.44
610.06	6557.44
610.152	4411.44
610.244	5034.44
610.335	4272.44
610.427	4124.44
610.519	4203.44
610.611	4066.44
610.702	4145.44
610.794	4162.44
610.886	4138.44
610.978	3921.44
611.069	4498.44
611.161	3896.44
611.253	3914.44
611.344	3756.44
611.436	3692.44
611.528	3752.44
611.62	3605.44
611.711	3614.44
611.803	3548.44
611.894	3463.44
611.986	3530.44
612.078	3463.44
612.169	3379.44
612.261	3382.44
612.352	3264.44
612.444	3173.44
612.536	3311.44
612.627	3130.44
612.719	3031.44
612.81	3031.44
612.902	3101.44
612.993	2909.44
613.085	2954.44
613.176	2834.44
613.268	2825.44
613.359	2810.44
613.451	2770.44
613.542	2696.44
613.634	2609.44
613.725	2705.44
613.816	2703.44
613.908	2502.44
613.999	2426.44
614.091	2441.44
614.182	2330.44
614.273	2385.44
614.365	2250.44
614.456	2175.44
614.547	2220.44
614.639	2107.44
614.73	2073.44
614.821	2109.44
614.913	1957.44
615.004	2011.44
615.095	1875.44
615.187	1816.44
