Data from 14g_HRC06701__34__217.txt Node

Date: Thu Apr 18 01:58:28 CDT 2024
User: Estudiantes 2
Spectrometer: HR+C0670
Trigger mode: 4
Integration Time (sec): 1.000000E0
Scans to average: 1
Electric dark correction enabled: true
Nonlinearity correction enabled: false
Boxcar width: 0
XAxis mode: Wavelengths
Number of Pixels in Spectrum: 2048
>>>>>Begin Spectral Data<<<<<
407.81	-104.69
407.921	-104.69
408.032	-104.69
408.143	-91.69
408.254	-136.69
408.365	28.31
408.476	291.31
408.587	-58.69
408.699	-17.69
408.81	20.31
408.921	-46.69
409.032	-61.69
409.143	40.31
409.254	16.31
409.365	53.31
409.476	-25.69
409.587	44.31
409.698	49.31
409.809	82.31
409.92	8.31
410.031	-26.69
410.142	69.31
410.253	36.31
410.364	19.31
410.475	-43.69
410.585	116.31
410.696	172.31
410.807	84.31
410.918	93.31
411.029	206.31
411.14	150.31
411.251	95.31
411.362	220.31
411.472	137.31
411.583	151.31
411.694	218.31
411.805	106.31
411.916	121.31
412.026	205.31
412.137	181.31
412.248	136.31
412.359	121.31
412.47	130.31
412.58	83.31
412.691	145.31
412.802	187.31
412.912	116.31
413.023	137.31
413.134	167.31
413.245	208.31
413.355	115.31
413.466	102.31
413.577	177.31
413.687	212.31
413.798	50.31
413.909	245.31
414.019	164.31
414.13	147.31
414.24	112.31
414.351	165.31
414.462	283.31
414.572	208.31
414.683	171.31
414.793	136.31
414.904	450.31
415.014	144.31
415.125	107.31
415.235	180.31
415.346	297.31
415.456	266.31
415.567	137.31
415.677	243.31
415.788	177.31
415.898	129.31
416.009	176.31
416.119	153.31
416.23	113.31
416.34	120.31
416.45	157.31
416.561	861.31
416.671	269.31
416.782	131.31
416.892	74.31
417.002	170.31
417.113	196.31
417.223	144.31
417.333	85.31
417.444	163.31
417.554	151.31
417.664	146.31
417.775	94.31
417.885	157.31
417.995	153.31
418.106	301.31
418.216	181.31
418.326	169.31
418.436	167.31
418.547	169.31
418.657	61.31
418.767	200.31
418.877	180.31
418.987	130.31
419.098	93.31
419.208	146.31
419.318	202.31
419.428	215.31
419.538	129.31
419.648	237.31
419.759	226.31
419.869	251.31
419.979	205.31
420.089	153.31
420.199	139.31
420.309	212.31
420.419	196.31
420.529	125.31
420.639	655.31
420.749	249.31
420.859	165.31
420.969	168.31
421.079	426.31
421.189	274.31
421.299	198.31
421.409	193.31
421.519	275.31
421.629	262.31
421.739	190.31
421.849	115.31
421.959	129.31
422.069	270.31
422.179	127.31
422.289	136.31
422.399	124.31
422.509	267.31
422.619	2571.31
422.729	456.31
422.838	174.31
422.948	177.31
423.058	134.31
423.168	190.31
423.278	148.31
423.388	157.31
423.498	241.31
423.607	201.31
423.717	442.31
423.827	484.31
423.937	244.31
424.046	228.31
424.156	274.31
424.266	244.31
424.376	372.31
424.485	324.31
424.595	243.31
424.705	147.31
424.815	178.31
424.924	624.31
425.034	272.31
425.144	149.31
425.253	216.31
425.363	260.31
425.473	279.31
425.582	166.31
425.692	245.31
425.801	165.31
425.911	301.31
426.021	267.31
426.13	316.31
426.24	410.31
426.349	329.31
426.459	210.31
426.568	146.31
426.678	288.31
426.787	240.31
426.897	177.31
427.006	210.31
427.116	296.31
427.225	199.31
427.335	269.31
427.444	231.31
427.554	238.31
427.663	209.31
427.773	237.31
427.882	278.31
427.992	208.31
428.101	216.31
428.21	185.31
428.32	234.31
428.429	183.31
428.539	506.31
428.648	208.31
428.757	324.31
428.867	314.31
428.976	365.31
429.085	234.31
429.195	242.31
429.304	238.31
429.413	274.31
429.523	310.31
429.632	296.31
429.741	300.31
429.85	234.31
429.96	340.31
430.069	254.31
430.178	233.31
430.287	530.31
430.397	222.31
430.506	248.31
430.615	254.31
430.724	236.31
430.833	248.31
430.943	243.31
431.052	269.31
431.161	169.31
431.27	257.31
431.379	249.31
431.488	349.31
431.597	327.31
431.706	364.31
431.816	249.31
431.925	277.31
432.034	293.31
432.143	268.31
432.252	290.31
432.361	361.31
432.47	319.31
432.579	267.31
432.688	233.31
432.797	296.31
432.906	222.31
433.015	307.31
433.124	686.31
433.233	314.31
433.342	321.31
433.451	289.31
433.56	282.31
433.669	243.31
433.778	282.31
433.886	280.31
433.995	250.31
434.104	394.31
434.213	306.31
434.322	254.31
434.431	322.31
434.54	275.31
434.649	378.31
434.757	260.31
434.866	266.31
434.975	372.31
435.084	335.31
435.193	333.31
435.301	590.31
435.41	664.31
435.519	691.31
435.628	330.31
435.737	254.31
435.845	248.31
435.954	258.31
436.063	297.31
436.171	246.31
436.28	319.31
436.389	377.31
436.498	267.31
436.606	300.31
436.715	443.31
436.823	235.31
436.932	249.31
437.041	314.31
437.149	319.31
437.258	258.31
437.367	278.31
437.475	234.31
437.584	463.31
437.692	312.31
437.801	1647.31
437.91	451.31
438.018	249.31
438.127	227.31
438.235	311.31
438.344	250.31
438.452	328.31
438.561	214.31
438.669	217.31
438.778	235.31
438.886	201.31
438.995	189.31
439.103	314.31
439.212	166.31
439.32	218.31
439.428	213.31
439.537	290.31
439.645	290.31
439.754	282.31
439.862	235.31
439.97	257.31
440.079	233.31
440.187	195.31
440.295	326.31
440.404	235.31
440.512	288.31
440.62	262.31
440.729	273.31
440.837	311.31
440.945	878.31
441.054	302.31
441.162	230.31
441.27	322.31
441.378	206.31
441.487	215.31
441.595	615.31
441.703	329.31
441.811	270.31
441.92	247.31
442.028	218.31
442.136	259.31
442.244	330.31
442.352	270.31
442.461	183.31
442.569	206.31
442.677	230.31
442.785	258.31
442.893	235.31
443.001	240.31
443.109	155.31
443.217	195.31
443.325	225.31
443.434	703.31
443.542	453.31
443.65	308.31
443.758	349.31
443.866	201.31
443.974	476.31
444.082	332.31
444.19	220.31
444.298	244.31
444.406	350.31
444.514	253.31
444.622	299.31
444.73	326.31
444.838	247.31
444.946	314.31
445.054	292.31
445.161	229.31
445.269	199.31
445.377	310.31
445.485	290.31
445.593	264.31
445.701	445.31
445.809	359.31
445.917	258.31
446.025	205.31
446.132	376.31
446.24	323.31
446.348	268.31
446.456	267.31
446.564	221.31
446.671	252.31
446.779	238.31
446.887	238.31
446.995	233.31
447.102	275.31
447.21	362.31
447.318	230.31
447.426	217.31
447.533	525.31
447.641	1389.31
447.749	357.31
447.856	285.31
447.964	275.31
448.072	342.31
448.179	264.31
448.287	312.31
448.395	318.31
448.502	262.31
448.61	325.31
448.718	242.31
448.825	296.31
448.933	298.31
449.04	230.31
449.148	252.31
449.256	334.31
449.363	257.31
449.471	268.31
449.578	353.31
449.686	237.31
449.793	373.31
449.901	245.31
450.008	313.31
450.116	348.31
450.223	228.31
450.331	390.31
450.438	303.31
450.546	269.31
450.653	398.31
450.76	318.31
450.868	338.31
450.975	484.31
451.083	330.31
451.19	346.31
451.297	316.31
451.405	347.31
451.512	262.31
451.619	384.31
451.727	485.31
451.834	301.31
451.941	291.31
452.049	333.31
452.156	301.31
452.263	351.31
452.371	326.31
452.478	342.31
452.585	441.31
452.692	287.31
452.8	360.31
452.907	425.31
453.014	397.31
453.121	366.31
453.229	361.31
453.336	374.31
453.443	474.31
453.55	283.31
453.657	374.31
453.765	419.31
453.872	367.31
453.979	383.31
454.086	374.31
454.193	442.31
454.3	328.31
454.407	509.31
454.514	468.31
454.621	319.31
454.729	334.31
454.836	409.31
454.943	391.31
455.05	373.31
455.157	476.31
455.264	371.31
455.371	382.31
455.478	386.31
455.585	590.31
455.692	403.31
455.799	494.31
455.906	404.31
456.013	356.31
456.12	339.31
456.227	392.31
456.334	375.31
456.44	469.31
456.547	424.31
456.654	383.31
456.761	377.31
456.868	473.31
456.975	474.31
457.082	397.31
457.189	386.31
457.296	437.31
457.402	364.31
457.509	353.31
457.616	491.31
457.723	548.31
457.83	427.31
457.936	360.31
458.043	667.31
458.15	436.31
458.257	475.31
458.363	464.31
458.47	418.31
458.577	504.31
458.684	408.31
458.79	414.31
458.897	415.31
459.004	523.31
459.11	418.31
459.217	431.31
459.324	537.31
459.43	589.31
459.537	667.31
459.644	474.31
459.75	440.31
459.857	695.31
459.964	475.31
460.07	509.31
460.177	466.31
460.283	515.31
460.39	659.31
460.496	498.31
460.603	546.31
460.71	512.31
460.816	423.31
460.923	408.31
461.029	517.31
461.136	562.31
461.242	458.31
461.349	472.31
461.455	476.31
461.562	754.31
461.668	538.31
461.774	506.31
461.881	524.31
461.987	491.31
462.094	525.31
462.2	492.31
462.307	470.31
462.413	471.31
462.519	491.31
462.626	601.31
462.732	514.31
462.838	596.31
462.945	557.31
463.051	523.31
463.157	542.31
463.264	507.31
463.37	549.31
463.476	605.31
463.583	493.31
463.689	450.31
463.795	545.31
463.901	579.31
464.008	585.31
464.114	466.31
464.22	450.31
464.326	464.31
464.433	437.31
464.539	550.31
464.645	416.31
464.751	601.31
464.857	488.31
464.963	409.31
465.07	488.31
465.176	476.31
465.282	441.31
465.388	520.31
465.494	378.31
465.6	462.31
465.706	383.31
465.812	344.31
465.918	497.31
466.024	409.31
466.131	430.31
466.237	444.31
466.343	364.31
466.449	309.31
466.555	370.31
466.661	389.31
466.767	328.31
466.873	399.31
466.979	574.31
467.085	364.31
467.191	415.31
467.296	365.31
467.402	316.31
467.508	352.31
467.614	545.31
467.72	365.31
467.826	335.31
467.932	364.31
468.038	360.31
468.144	363.31
468.25	338.31
468.355	359.31
468.461	375.31
468.567	314.31
468.673	390.31
468.779	363.31
468.885	378.31
468.99	349.31
469.096	329.31
469.202	395.31
469.308	408.31
469.413	382.31
469.519	300.31
469.625	316.31
469.731	403.31
469.836	310.31
469.942	507.31
470.048	413.31
470.153	360.31
470.259	369.31
470.365	477.31
470.47	413.31
470.576	336.31
470.682	375.31
470.787	354.31
470.893	281.31
470.999	402.31
471.104	444.31
471.21	330.31
471.315	251.31
471.421	339.31
471.527	470.31
471.632	417.31
471.738	419.31
471.843	286.31
471.949	374.31
472.054	407.31
472.16	330.31
472.265	348.31
472.371	278.31
472.476	364.31
472.582	417.31
472.687	311.31
472.793	307.31
472.898	303.31
473.003	292.31
473.109	297.31
473.214	284.31
473.32	258.31
473.425	413.31
473.53	375.31
473.636	290.31
473.741	313.31
473.847	329.31
473.952	276.31
474.057	393.31
474.163	432.31
474.268	265.31
474.373	369.31
474.478	274.31
474.584	262.31
474.689	344.31
474.794	321.31
474.9	551.31
475.005	277.31
475.11	466.31
475.215	327.31
475.321	328.31
475.426	498.31
475.531	505.31
475.636	309.31
475.741	242.31
475.846	455.31
475.952	479.31
476.057	368.31
476.162	473.31
476.267	507.31
476.372	581.31
476.477	393.31
476.582	485.31
476.687	333.31
476.793	359.31
476.898	365.31
477.003	343.31
477.108	307.31
477.213	305.31
477.318	306.31
477.423	389.31
477.528	456.31
477.633	435.31
477.738	354.31
477.843	309.31
477.948	389.31
478.053	316.31
478.158	344.31
478.263	443.31
478.368	347.31
478.473	440.31
478.578	423.31
478.682	296.31
478.787	386.31
478.892	420.31
478.997	397.31
479.102	337.31
479.207	340.31
479.312	511.31
479.417	396.31
479.521	369.31
479.626	474.31
479.731	386.31
479.836	394.31
479.941	527.31
480.045	425.31
480.15	430.31
480.255	448.31
480.36	329.31
480.465	390.31
480.569	535.31
480.674	425.31
480.779	291.31
480.883	332.31
480.988	453.31
481.093	365.31
481.197	409.31
481.302	438.31
481.407	455.31
481.511	1586.31
481.616	545.31
481.721	398.31
481.825	550.31
481.93	419.31
482.035	409.31
482.139	408.31
482.244	431.31
482.348	472.31
482.453	410.31
482.557	460.31
482.662	475.31
482.767	358.31
482.871	395.31
482.976	414.31
483.08	442.31
483.185	586.31
483.289	405.31
483.394	417.31
483.498	448.31
483.603	410.31
483.707	477.31
483.811	477.31
483.916	555.31
484.02	490.31
484.125	498.31
484.229	444.31
484.333	562.31
484.438	435.31
484.542	410.31
484.647	422.31
484.751	433.31
484.855	418.31
484.96	390.31
485.064	518.31
485.168	415.31
485.273	400.31
485.377	454.31
485.481	599.31
485.585	432.31
485.69	458.31
485.794	479.31
485.898	467.31
486.002	478.31
486.107	529.31
486.211	449.31
486.315	493.31
486.419	605.31
486.524	494.31
486.628	465.31
486.732	466.31
486.836	462.31
486.94	557.31
487.044	495.31
487.148	485.31
487.253	442.31
487.357	516.31
487.461	643.31
487.565	490.31
487.669	502.31
487.773	525.31
487.877	605.31
487.981	524.31
488.085	590.31
488.189	481.31
488.293	624.31
488.397	971.31
488.501	563.31
488.605	469.31
488.709	542.31
488.813	499.31
488.917	448.31
489.021	538.31
489.125	771.31
489.229	527.31
489.333	616.31
489.437	618.31
489.541	545.31
489.645	508.31
489.749	564.31
489.853	559.31
489.956	494.31
490.06	580.31
490.164	571.31
490.268	512.31
490.372	554.31
490.476	536.31
490.579	492.31
490.683	1082.31
490.787	685.31
490.891	514.31
490.995	564.31
491.098	612.31
491.202	516.31
491.306	569.31
491.41	570.31
491.513	562.31
491.617	529.31
491.721	709.31
491.824	847.31
491.928	535.31
492.032	761.31
492.136	619.31
492.239	494.31
492.343	572.31
492.446	892.31
492.55	560.31
492.654	480.31
492.757	519.31
492.861	664.31
492.965	522.31
493.068	562.31
493.172	577.31
493.275	490.31
493.379	505.31
493.482	698.31
493.586	611.31
493.689	764.31
493.793	575.31
493.896	583.31
494	579.31
494.103	610.31
494.207	809.31
494.31	869.31
494.414	604.31
494.517	615.31
494.621	458.31
494.724	518.31
494.828	574.31
494.931	506.31
495.034	496.31
495.138	697.31
495.241	531.31
495.345	1210.31
495.448	733.31
495.551	514.31
495.655	505.31
495.758	514.31
495.861	557.31
495.965	514.31
496.068	573.31
496.171	622.31
496.274	507.31
496.378	504.31
496.481	560.31
496.584	546.31
496.687	534.31
496.791	615.31
496.894	602.31
496.997	493.31
497.1	551.31
497.204	585.31
497.307	478.31
497.41	671.31
497.513	766.31
497.616	524.31
497.719	472.31
497.823	509.31
497.926	470.31
498.029	508.31
498.132	566.31
498.235	533.31
498.338	566.31
498.441	640.31
498.544	576.31
498.647	541.31
498.75	636.31
498.853	774.31
498.956	570.31
499.059	779.31
499.163	622.31
499.266	618.31
499.369	610.31
499.471	682.31
499.574	745.31
499.677	661.31
499.78	700.31
499.883	696.31
499.986	756.31
500.089	727.31
500.192	804.31
500.295	709.31
500.398	722.31
500.501	791.31
500.604	661.31
500.707	644.31
500.809	708.31
500.912	790.31
501.015	724.31
501.118	638.31
501.221	758.31
501.324	592.31
501.426	620.31
501.529	653.31
501.632	602.31
501.735	546.31
501.837	521.31
501.94	532.31
502.043	507.31
502.146	603.31
502.248	551.31
502.351	474.31
502.454	526.31
502.557	541.31
502.659	532.31
502.762	470.31
502.865	518.31
502.967	447.31
503.07	484.31
503.173	510.31
503.275	457.31
503.378	461.31
503.48	451.31
503.583	552.31
503.686	505.31
503.788	723.31
503.891	543.31
503.993	681.31
504.096	467.31
504.198	493.31
504.301	395.31
504.403	430.31
504.506	491.31
504.608	468.31
504.711	453.31
504.813	591.31
504.916	508.31
505.018	453.31
505.121	424.31
505.223	515.31
505.326	457.31
505.428	517.31
505.531	493.31
505.633	430.31
505.735	355.31
505.838	452.31
505.94	402.31
506.042	355.31
506.145	438.31
506.247	472.31
506.35	367.31
506.452	476.31
506.554	501.31
506.656	462.31
506.759	388.31
506.861	500.31
506.963	403.31
507.066	446.31
507.168	568.31
507.27	376.31
507.372	373.31
507.475	441.31
507.577	433.31
507.679	374.31
507.781	386.31
507.883	445.31
507.986	334.31
508.088	431.31
508.19	465.31
508.292	445.31
508.394	380.31
508.496	378.31
508.598	368.31
508.701	392.31
508.803	405.31
508.905	332.31
509.007	405.31
509.109	479.31
509.211	453.31
509.313	342.31
509.415	368.31
509.517	449.31
509.619	362.31
509.721	415.31
509.823	401.31
509.925	509.31
510.027	376.31
510.129	471.31
510.231	418.31
510.333	348.31
510.435	373.31
510.537	445.31
510.639	434.31
510.741	400.31
510.843	540.31
510.945	374.31
511.047	434.31
511.148	448.31
511.25	395.31
511.352	392.31
511.454	349.31
511.556	468.31
511.658	395.31
511.76	468.31
511.861	529.31
511.963	353.31
512.065	389.31
512.167	402.31
512.268	520.31
512.37	428.31
512.472	428.31
512.574	432.31
512.676	468.31
512.777	414.31
512.879	353.31
512.981	329.31
513.082	465.31
513.184	414.31
513.286	849.31
513.387	477.31
513.489	579.31
513.591	510.31
513.692	457.31
513.794	499.31
513.896	322.31
513.997	334.31
514.099	355.31
514.2	416.31
514.302	429.31
514.404	403.31
514.505	366.31
514.607	429.31
514.708	402.31
514.81	488.31
514.911	394.31
515.013	472.31
515.114	518.31
515.216	381.31
515.317	381.31
515.419	437.31
515.52	419.31
515.622	419.31
515.723	446.31
515.825	562.31
515.926	414.31
516.027	386.31
516.129	400.31
516.23	418.31
516.332	450.31
516.433	476.31
516.534	518.31
516.636	438.31
516.737	444.31
516.838	1326.31
516.94	538.31
517.041	481.31
517.142	609.31
517.244	557.31
517.345	509.31
517.446	540.31
517.547	508.31
517.649	449.31
517.75	542.31
517.851	443.31
517.952	693.31
518.054	549.31
518.155	574.31
518.256	461.31
518.357	654.31
518.458	437.31
518.56	393.31
518.661	491.31
518.762	488.31
518.863	601.31
518.964	557.31
519.065	462.31
519.166	451.31
519.268	452.31
519.369	710.31
519.47	476.31
519.571	509.31
519.672	455.31
519.773	419.31
519.874	461.31
519.975	506.31
520.076	531.31
520.177	564.31
520.278	476.31
520.379	535.31
520.48	363.31
520.581	421.31
520.682	462.31
520.783	443.31
520.884	530.31
520.985	511.31
521.086	500.31
521.187	498.31
521.288	513.31
521.389	519.31
521.489	466.31
521.59	406.31
521.691	526.31
521.792	435.31
521.893	566.31
521.994	652.31
522.095	498.31
522.195	559.31
522.296	642.31
522.397	564.31
522.498	508.31
522.599	454.31
522.699	515.31
522.8	476.31
522.901	573.31
523.002	524.31
523.102	654.31
523.203	499.31
523.304	695.31
523.405	467.31
523.505	505.31
523.606	535.31
523.707	534.31
523.807	574.31
523.908	538.31
524.009	690.31
524.109	521.31
524.21	506.31
524.31	608.31
524.411	624.31
524.512	644.31
524.612	570.31
524.713	686.31
524.813	515.31
524.914	778.31
525.014	5706.31
525.115	1002.31
525.216	476.31
525.316	553.31
525.417	537.31
525.517	549.31
525.618	550.31
525.718	459.31
525.819	434.31
525.919	604.31
526.019	482.31
526.12	592.31
526.22	508.31
526.321	474.31
526.421	439.31
526.522	466.31
526.622	477.31
526.722	422.31
526.823	547.31
526.923	578.31
527.023	606.31
527.124	481.31
527.224	629.31
527.324	461.31
527.425	518.31
527.525	458.31
527.625	486.31
527.726	458.31
527.826	596.31
527.926	509.31
528.026	512.31
528.127	502.31
528.227	562.31
528.327	610.31
528.427	501.31
528.528	567.31
528.628	543.31
528.728	519.31
528.828	680.31
528.928	602.31
529.029	525.31
529.129	583.31
529.229	532.31
529.329	508.31
529.429	630.31
529.529	682.31
529.629	599.31
529.729	522.31
529.829	701.31
529.93	514.31
530.03	591.31
530.13	532.31
530.23	520.31
530.33	645.31
530.43	511.31
530.53	601.31
530.63	492.31
530.73	429.31
530.83	480.31
530.93	460.31
531.03	451.31
531.13	610.31
531.23	454.31
531.33	520.31
531.429	589.31
531.529	533.31
531.629	493.31
531.729	476.31
531.829	430.31
531.929	446.31
532.029	500.31
532.129	500.31
532.229	514.31
532.328	471.31
532.428	500.31
532.528	396.31
532.628	407.31
532.728	536.31
532.827	498.31
532.927	522.31
533.027	481.31
533.127	601.31
533.227	518.31
533.326	538.31
533.426	515.31
533.526	564.31
533.625	604.31
533.725	753.31
533.825	538.31
533.924	439.31
534.024	444.31
534.124	408.31
534.223	452.31
534.323	894.31
534.423	508.31
534.522	512.31
534.622	445.31
534.722	472.31
534.821	483.31
534.921	407.31
535.02	425.31
535.12	533.31
535.219	545.31
535.319	565.31
535.419	541.31
535.518	457.31
535.618	515.31
535.717	563.31
535.817	431.31
535.916	388.31
536.016	562.31
536.115	410.31
536.215	394.31
536.314	429.31
536.413	321.31
536.513	414.31
536.612	425.31
536.712	344.31
536.811	415.31
536.91	394.31
537.01	381.31
537.109	432.31
537.209	449.31
537.308	420.31
537.407	400.31
537.507	434.31
537.606	436.31
537.705	450.31
537.805	439.31
537.904	413.31
538.003	422.31
538.102	520.31
538.202	482.31
538.301	502.31
538.4	469.31
538.499	503.31
538.599	514.31
538.698	664.31
538.797	435.31
538.896	525.31
538.995	450.31
539.095	442.31
539.194	619.31
539.293	408.31
539.392	449.31
539.491	457.31
539.59	456.31
539.689	491.31
539.789	510.31
539.888	326.31
539.987	268.31
540.086	411.31
540.185	472.31
540.284	426.31
540.383	429.31
540.482	446.31
540.581	395.31
540.68	395.31
540.779	506.31
540.878	430.31
540.977	487.31
541.076	466.31
541.175	514.31
541.274	652.31
541.373	520.31
541.472	513.31
541.571	388.31
541.67	1672.31
541.769	641.31
541.868	493.31
541.966	476.31
542.065	498.31
542.164	468.31
542.263	434.31
542.362	422.31
542.461	518.31
542.56	500.31
542.658	473.31
542.757	408.31
542.856	354.31
542.955	389.31
543.054	457.31
543.152	572.31
543.251	441.31
543.35	577.31
543.449	462.31
543.547	449.31
543.646	426.31
543.745	522.31
543.843	446.31
543.942	470.31
544.041	441.31
544.14	477.31
544.238	442.31
544.337	662.31
544.436	474.31
544.534	601.31
544.633	537.31
544.731	467.31
544.83	449.31
544.929	476.31
545.027	486.31
545.126	385.31
545.224	508.31
545.323	474.31
545.421	447.31
545.52	454.31
545.619	519.31
545.717	450.31
545.816	514.31
545.914	572.31
546.013	699.31
546.111	615.31
546.209	488.31
546.308	471.31
546.406	420.31
546.505	631.31
546.603	504.31
546.702	413.31
546.8	469.31
546.899	463.31
546.997	458.31
547.095	474.31
547.194	511.31
547.292	504.31
547.39	540.31
547.489	474.31
547.587	729.31
547.685	427.31
547.784	679.31
547.882	538.31
547.98	406.31
548.079	506.31
548.177	467.31
548.275	435.31
548.373	540.31
548.472	433.31
548.57	488.31
548.668	537.31
548.766	468.31
548.864	559.31
548.963	428.31
549.061	572.31
549.159	419.31
549.257	458.31
549.355	430.31
549.454	415.31
549.552	518.31
549.65	403.31
549.748	437.31
549.846	396.31
549.944	381.31
550.042	426.31
550.14	453.31
550.238	467.31
550.336	405.31
550.434	396.31
550.532	401.31
550.631	574.31
550.729	532.31
550.827	451.31
550.925	427.31
551.023	470.31
551.121	348.31
551.218	376.31
551.316	397.31
551.414	401.31
551.512	334.31
551.61	419.31
551.708	515.31
551.806	433.31
551.904	369.31
552.002	373.31
552.1	392.31
552.198	388.31
552.296	575.31
552.393	568.31
552.491	568.31
552.589	538.31
552.687	554.31
552.785	455.31
552.882	554.31
552.98	716.31
553.078	545.31
553.176	545.31
553.274	437.31
553.371	438.31
553.469	432.31
553.567	467.31
553.665	442.31
553.762	833.31
553.86	601.31
553.958	526.31
554.055	493.31
554.153	538.31
554.251	554.31
554.348	453.31
554.446	437.31
554.544	508.31
554.641	733.31
554.739	433.31
554.837	488.31
554.934	445.31
555.032	423.31
555.129	422.31
555.227	636.31
555.324	4194.31
555.422	793.31
555.519	501.31
555.617	468.31
555.715	371.31
555.812	829.31
555.91	373.31
556.007	454.31
556.105	455.31
556.202	440.31
556.299	377.31
556.397	463.31
556.494	400.31
556.592	363.31
556.689	470.31
556.787	458.31
556.884	363.31
556.981	374.31
557.079	432.31
557.176	412.31
557.273	438.31
557.371	561.31
557.468	420.31
557.566	478.31
557.663	450.31
557.76	446.31
557.857	377.31
557.955	418.31
558.052	522.31
558.149	514.31
558.247	561.31
558.344	453.31
558.441	353.31
558.538	420.31
558.636	422.31
558.733	441.31
558.83	439.31
558.927	422.31
559.024	471.31
559.122	393.31
559.219	414.31
559.316	540.31
559.413	525.31
559.51	391.31
559.607	460.31
559.704	438.31
559.801	479.31
559.899	424.31
559.996	620.31
560.093	483.31
560.19	413.31
560.287	490.31
560.384	606.31
560.481	442.31
560.578	450.31
560.675	396.31
560.772	461.31
560.869	467.31
560.966	548.31
561.063	401.31
561.16	583.31
561.257	414.31
561.354	443.31
561.451	434.31
561.548	447.31
561.645	576.31
561.742	427.31
561.838	430.31
561.935	429.31
562.032	412.31
562.129	472.31
562.226	420.31
562.323	402.31
562.42	488.31
562.516	402.31
562.613	365.31
562.71	458.31
562.807	1129.31
562.904	438.31
563	449.31
563.097	421.31
563.194	397.31
563.291	431.31
563.387	459.31
563.484	402.31
563.581	431.31
563.678	424.31
563.774	760.31
563.871	462.31
563.968	456.31
564.064	430.31
564.161	383.31
564.258	398.31
564.354	500.31
564.451	438.31
564.548	459.31
564.644	467.31
564.741	421.31
564.837	363.31
564.934	455.31
565.031	398.31
565.127	375.31
565.224	504.31
565.32	582.31
565.417	447.31
565.513	481.31
565.61	503.31
565.706	472.31
565.803	473.31
565.899	500.31
565.996	509.31
566.092	447.31
566.189	454.31
566.285	442.31
566.382	465.31
566.478	539.31
566.574	552.31
566.671	430.31
566.767	483.31
566.864	424.31
566.96	477.31
567.056	435.31
567.153	703.31
567.249	497.31
567.345	538.31
567.442	632.31
567.538	554.31
567.634	470.31
567.731	457.31
567.827	473.31
567.923	522.31
568.019	417.31
568.116	391.31
568.212	343.31
568.308	458.31
568.404	455.31
568.501	444.31
568.597	436.31
568.693	440.31
568.789	997.31
568.885	423.31
568.982	466.31
569.078	374.31
569.174	443.31
569.27	369.31
569.366	468.31
569.462	361.31
569.558	332.31
569.655	420.31
569.751	334.31
569.847	333.31
569.943	374.31
570.039	279.31
570.135	709.31
570.231	398.31
570.327	489.31
570.423	454.31
570.519	442.31
570.615	380.31
570.711	415.31
570.807	429.31
570.903	374.31
570.999	390.31
571.095	402.31
571.191	389.31
571.287	403.31
571.383	429.31
571.479	460.31
571.574	463.31
571.67	386.31
571.766	565.31
571.862	391.31
571.958	336.31
572.054	462.31
572.15	385.31
572.246	285.31
572.341	423.31
572.437	403.31
572.533	441.31
572.629	389.31
572.725	413.31
572.82	320.31
572.916	415.31
573.012	358.31
573.108	427.31
573.203	333.31
573.299	318.31
573.395	314.31
573.49	242.31
573.586	263.31
573.682	372.31
573.778	459.31
573.873	248.31
573.969	314.31
574.065	273.31
574.16	312.31
574.256	336.31
574.351	365.31
574.447	280.31
574.543	308.31
574.638	425.31
574.734	340.31
574.829	517.31
574.925	373.31
575.02	332.31
575.116	329.31
575.212	402.31
575.307	484.31
575.403	299.31
575.498	371.31
575.594	339.31
575.689	368.31
575.784	404.31
575.88	369.31
575.975	373.31
576.071	285.31
576.166	341.31
576.262	325.31
576.357	283.31
576.452	506.31
576.548	302.31
576.643	306.31
576.739	383.31
576.834	363.31
576.929	354.31
577.025	970.31
577.12	370.31
577.215	289.31
577.311	324.31
577.406	432.31
577.501	464.31
577.597	243.31
577.692	533.31
577.787	389.31
577.882	291.31
577.978	372.31
578.073	270.31
578.168	258.31
578.263	276.31
578.358	277.31
578.454	231.31
578.549	215.31
578.644	298.31
578.739	319.31
578.834	235.31
578.929	290.31
579.025	246.31
579.12	362.31
579.215	560.31
579.31	424.31
579.405	250.31
579.5	376.31
579.595	330.31
579.69	225.31
579.785	293.31
579.88	283.31
579.975	274.31
580.07	262.31
580.165	315.31
580.26	354.31
580.355	280.31
580.45	299.31
580.545	255.31
580.64	260.31
580.735	396.31
580.83	332.31
580.925	212.31
581.02	249.31
581.115	266.31
581.21	177.31
581.305	280.31
581.4	338.31
581.495	257.31
581.589	290.31
581.684	241.31
581.779	329.31
581.874	280.31
581.969	415.31
582.064	233.31
582.158	217.31
582.253	214.31
582.348	301.31
582.443	269.31
582.537	259.31
582.632	495.31
582.727	245.31
582.822	234.31
582.916	270.31
583.011	239.31
583.106	325.31
583.201	276.31
583.295	325.31
583.39	189.31
583.485	197.31
583.579	1771.31
583.674	458.31
583.769	497.31
583.863	302.31
583.958	205.31
584.052	143.31
584.147	283.31
584.242	182.31
584.336	253.31
584.431	417.31
584.525	222.31
584.62	427.31
584.714	346.31
584.809	294.31
584.903	248.31
584.998	280.31
585.092	245.31
585.187	227.31
585.281	170.31
585.376	299.31
585.47	259.31
585.565	286.31
585.659	178.31
585.754	236.31
585.848	245.31
585.942	222.31
586.037	272.31
586.131	2389.31
586.226	432.31
586.32	338.31
586.414	140.31
586.509	325.31
586.603	305.31
586.697	225.31
586.792	206.31
586.886	203.31
586.98	312.31
587.075	211.31
587.169	198.31
587.263	448.31
587.357	274.31
587.452	215.31
587.546	360.31
587.64	188.31
587.734	246.31
587.829	316.31
587.923	181.31
588.017	274.31
588.111	252.31
588.205	313.31
588.3	162.31
588.394	155.31
588.488	219.31
588.582	252.31
588.676	292.31
588.77	321.31
588.864	402.31
588.958	318.31
589.052	270.31
589.147	315.31
589.241	265.31
589.335	290.31
589.429	324.31
589.523	297.31
589.617	335.31
589.711	310.31
589.805	285.31
589.899	337.31
589.993	245.31
590.087	122.31
590.181	149.31
590.275	285.31
590.369	149.31
590.462	157.31
590.556	205.31
590.65	166.31
590.744	174.31
590.838	171.31
590.932	235.31
591.026	251.31
591.12	341.31
591.214	292.31
591.307	205.31
591.401	203.31
591.495	317.31
591.589	189.31
591.683	211.31
591.777	269.31
591.87	545.31
591.964	248.31
592.058	186.31
592.152	243.31
592.245	174.31
592.339	308.31
592.433	386.31
592.527	222.31
592.62	166.31
592.714	261.31
592.808	306.31
592.901	212.31
592.995	215.31
593.089	455.31
593.182	266.31
593.276	225.31
593.37	186.31
593.463	150.31
593.557	208.31
593.65	216.31
593.744	212.31
593.837	275.31
593.931	224.31
594.025	3297.31
594.118	532.31
594.212	192.31
594.305	165.31
594.399	213.31
594.492	515.31
594.586	240.31
594.679	191.31
594.773	218.31
594.866	262.31
594.96	191.31
595.053	142.31
595.146	244.31
595.24	148.31
595.333	154.31
595.427	117.31
595.52	165.31
595.614	313.31
595.707	205.31
595.8	176.31
595.894	205.31
595.987	138.31
596.08	139.31
596.174	515.31
596.267	334.31
596.36	358.31
596.454	324.31
596.547	289.31
596.64	226.31
596.733	108.31
596.827	230.31
596.92	226.31
597.013	93.31
597.106	94.31
597.2	153.31
597.293	174.31
597.386	396.31
597.479	259.31
597.572	259.31
597.666	100.31
597.759	147.31
597.852	291.31
597.945	173.31
598.038	166.31
598.131	149.31
598.224	193.31
598.317	244.31
598.411	188.31
598.504	171.31
598.597	227.31
598.69	175.31
598.783	189.31
598.876	183.31
598.969	211.31
599.062	169.31
599.155	178.31
599.248	105.31
599.341	217.31
599.434	142.31
599.527	227.31
599.62	135.31
599.713	164.31
599.806	222.31
599.899	293.31
599.991	191.31
600.084	397.31
600.177	130.31
600.27	188.31
600.363	296.31
600.456	120.31
600.549	232.31
600.642	113.31
600.734	126.31
600.827	170.31
600.92	327.31
601.013	167.31
601.106	251.31
601.199	189.31
601.291	146.31
601.384	181.31
601.477	392.31
601.57	231.31
601.662	147.31
601.755	174.31
601.848	196.31
601.94	128.31
602.033	301.31
602.126	210.31
602.219	119.31
602.311	248.31
602.404	187.31
602.497	161.31
602.589	105.31
602.682	228.31
602.774	187.31
602.867	174.31
602.96	182.31
603.052	145.31
603.145	117.31
603.237	171.31
603.33	152.31
603.422	278.31
603.515	133.31
603.608	207.31
603.7	169.31
603.793	141.31
603.885	215.31
603.978	145.31
604.07	109.31
604.163	174.31
604.255	176.31
604.347	101.31
604.44	80.31
604.532	233.31
604.625	171.31
604.717	133.31
604.81	258.31
604.902	142.31
604.994	113.31
605.087	189.31
605.179	141.31
605.271	153.31
605.364	194.31
605.456	191.31
605.548	131.31
605.641	178.31
605.733	179.31
605.825	135.31
605.918	98.31
606.01	335.31
606.102	592.31
606.194	201.31
606.287	307.31
606.379	121.31
606.471	150.31
606.563	206.31
606.655	204.31
606.748	194.31
606.84	169.31
606.932	233.31
607.024	127.31
607.116	69.31
607.208	189.31
607.301	175.31
607.393	134.31
607.485	174.31
607.577	180.31
607.669	254.31
607.761	219.31
607.853	406.31
607.945	142.31
608.037	114.31
608.129	182.31
608.221	140.31
608.313	116.31
608.405	247.31
608.497	154.31
608.589	143.31
608.681	215.31
608.773	173.31
608.865	154.31
608.957	227.31
609.049	139.31
609.141	234.31
609.233	138.31
609.325	129.31
609.417	93.31
609.509	206.31
609.601	319.31
609.693	226.31
609.784	130.31
609.876	213.31
609.968	183.31
610.06	2238.31
610.152	464.31
610.244	389.31
610.335	150.31
610.427	153.31
610.519	189.31
610.611	181.31
610.702	139.31
610.794	218.31
610.886	248.31
610.978	213.31
611.069	685.31
611.161	183.31
611.253	223.31
611.344	182.31
611.436	130.31
611.528	187.31
611.62	133.31
611.711	152.31
611.803	121.31
611.894	126.31
611.986	157.31
612.078	168.31
612.169	181.31
612.261	187.31
612.352	126.31
612.444	68.31
612.536	275.31
612.627	155.31
612.719	82.31
612.81	67.31
612.902	54.31
612.993	149.31
613.085	129.31
613.176	79.31
613.268	116.31
613.359	78.31
613.451	135.31
613.542	99.31
613.634	81.31
613.725	154.31
613.816	211.31
613.908	78.31
613.999	76.31
614.091	60.31
614.182	25.31
614.273	109.31
614.365	105.31
614.456	-5.69
614.547	25.31
614.639	65.31
614.73	82.31
614.821	113.31
614.913	45.31
615.004	-20.69
615.095	1.31
615.187	18.31
