Data from 14g_HRC06701__20__203.txt Node

Date: Thu Apr 18 01:58:14 CDT 2024
User: Estudiantes 2
Spectrometer: HR+C0670
Trigger mode: 4
Integration Time (sec): 1.000000E0
Scans to average: 1
Electric dark correction enabled: true
Nonlinearity correction enabled: false
Boxcar width: 0
XAxis mode: Wavelengths
Number of Pixels in Spectrum: 2048
>>>>>Begin Spectral Data<<<<<
407.81	-158.56
407.921	-158.56
408.032	-158.56
408.143	-142.56
408.254	-114.56
408.365	5.44
408.476	247.44
408.587	16.44
408.699	-58.56
408.81	-33.56
408.921	-11.56
409.032	-40.56
409.143	33.44
409.254	69.44
409.365	107.44
409.476	-36.56
409.587	-1.56
409.698	118.44
409.809	77.44
409.92	-94.56
410.031	15.44
410.142	54.44
410.253	-2.56
410.364	60.44
410.475	414.44
410.585	2214.44
410.696	2425.44
410.807	2399.44
410.918	2422.44
411.029	2486.44
411.14	2428.44
411.251	2383.44
411.362	2452.44
411.472	2530.44
411.583	2494.44
411.694	2558.44
411.805	2483.44
411.916	2484.44
412.026	2558.44
412.137	2556.44
412.248	2490.44
412.359	2464.44
412.47	2375.44
412.58	2472.44
412.691	2453.44
412.802	2518.44
412.912	2522.44
413.023	2402.44
413.134	2401.44
413.245	2522.44
413.355	2394.44
413.466	2400.44
413.577	2460.44
413.687	2529.44
413.798	2302.44
413.909	2454.44
414.019	2522.44
414.13	2463.44
414.24	2480.44
414.351	2536.44
414.462	2626.44
414.572	2550.44
414.683	2614.44
414.793	2456.44
414.904	2826.44
415.014	2454.44
415.125	2428.44
415.235	2428.44
415.346	2603.44
415.456	2606.44
415.567	2438.44
415.677	2450.44
415.788	2522.44
415.898	2416.44
416.009	2385.44
416.119	2539.44
416.23	2431.44
416.34	2418.44
416.45	2469.44
416.561	3282.44
416.671	2503.44
416.782	2399.44
416.892	2465.44
417.002	2453.44
417.113	2515.44
417.223	2522.44
417.333	2441.44
417.444	2493.44
417.554	2651.44
417.664	2622.44
417.775	2485.44
417.885	2570.44
417.995	2504.44
418.106	2808.44
418.216	2703.44
418.326	2725.44
418.436	2715.44
418.547	2788.44
418.657	2738.44
418.767	2795.44
418.877	2746.44
418.987	2794.44
419.098	2713.44
419.208	2773.44
419.318	2857.44
419.428	2882.44
419.538	2736.44
419.648	2843.44
419.759	2821.44
419.869	2799.44
419.979	2829.44
420.089	2815.44
420.199	2754.44
420.309	2807.44
420.419	2766.44
420.529	2719.44
420.639	3307.44
420.749	2950.44
420.859	2880.44
420.969	2940.44
421.079	3084.44
421.189	2889.44
421.299	2832.44
421.409	2823.44
421.519	2948.44
421.629	3044.44
421.739	2955.44
421.849	3043.44
421.959	2943.44
422.069	3054.44
422.179	3023.44
422.289	2947.44
422.399	3012.44
422.509	3203.44
422.619	5591.44
422.729	3316.44
422.838	3048.44
422.948	3195.44
423.058	3114.44
423.168	3193.44
423.278	3219.44
423.388	3272.44
423.498	3309.44
423.607	3393.44
423.717	3529.44
423.827	3573.44
423.937	3313.44
424.046	3464.44
424.156	3473.44
424.266	3368.44
424.376	3654.44
424.485	3516.44
424.595	3417.44
424.705	3536.44
424.815	3419.44
424.924	3855.44
425.034	3617.44
425.144	3513.44
425.253	3574.44
425.363	3666.44
425.473	3652.44
425.582	3459.44
425.692	3574.44
425.801	3617.44
425.911	3703.44
426.021	3663.44
426.13	3895.44
426.24	3910.44
426.349	3831.44
426.459	3766.44
426.568	3653.44
426.678	3829.44
426.787	3825.44
426.897	3820.44
427.006	3800.44
427.116	3888.44
427.225	3912.44
427.335	3985.44
427.444	3784.44
427.554	3941.44
427.663	3931.44
427.773	3944.44
427.882	4071.44
427.992	4015.44
428.101	4005.44
428.21	4031.44
428.32	4123.44
428.429	4043.44
428.539	4254.44
428.648	4152.44
428.757	4122.44
428.867	4150.44
428.976	4363.44
429.085	4163.44
429.195	4229.44
429.304	4235.44
429.413	4215.44
429.523	4290.44
429.632	4328.44
429.741	4209.44
429.85	4278.44
429.96	4341.44
430.069	4376.44
430.178	4287.44
430.287	4674.44
430.397	4368.44
430.506	4400.44
430.615	4460.44
430.724	4462.44
430.833	4427.44
430.943	4424.44
431.052	4503.44
431.161	4494.44
431.27	4516.44
431.379	4576.44
431.488	4891.44
431.597	4751.44
431.706	4753.44
431.816	4744.44
431.925	4624.44
432.034	4621.44
432.143	4789.44
432.252	4695.44
432.361	4794.44
432.47	4717.44
432.579	4672.44
432.688	4653.44
432.797	4728.44
432.906	4682.44
433.015	4721.44
433.124	5093.44
433.233	4937.44
433.342	4776.44
433.451	4861.44
433.56	4771.44
433.669	4765.44
433.778	4690.44
433.886	4760.44
433.995	4758.44
434.104	4986.44
434.213	4941.44
434.322	4922.44
434.431	5098.44
434.54	5145.44
434.649	5361.44
434.757	5290.44
434.866	5086.44
434.975	5224.44
435.084	5118.44
435.193	5063.44
435.301	5130.44
435.41	5078.44
435.519	5157.44
435.628	4650.44
435.737	4595.44
435.845	4640.44
435.954	4526.44
436.063	4606.44
436.171	4506.44
436.28	4464.44
436.389	4666.44
436.498	4401.44
436.606	4455.44
436.715	4671.44
436.823	4350.44
436.932	4263.44
437.041	4255.44
437.149	4321.44
437.258	4164.44
437.367	4145.44
437.475	4257.44
437.584	4476.44
437.692	4165.44
437.801	5731.44
437.91	4226.44
438.018	4072.44
438.127	4132.44
438.235	4224.44
438.344	4205.44
438.452	4091.44
438.561	4055.44
438.669	4028.44
438.778	3963.44
438.886	4075.44
438.995	4015.44
439.103	4043.44
439.212	4117.44
439.32	4067.44
439.428	3928.44
439.537	4077.44
439.645	4215.44
439.754	4088.44
439.862	3988.44
439.97	4139.44
440.079	4066.44
440.187	4047.44
440.295	4309.44
440.404	4086.44
440.512	4219.44
440.62	4232.44
440.729	4203.44
440.837	4208.44
440.945	4991.44
441.054	4396.44
441.162	4357.44
441.27	4464.44
441.378	4406.44
441.487	4497.44
441.595	4905.44
441.703	4643.44
441.811	4445.44
441.92	4445.44
442.028	4440.44
442.136	4432.44
442.244	4361.44
442.352	4434.44
442.461	4270.44
442.569	4254.44
442.677	4375.44
442.785	4407.44
442.893	4202.44
443.001	4254.44
443.109	4256.44
443.217	4321.44
443.325	4186.44
443.434	4908.44
443.542	4630.44
443.65	4371.44
443.758	4595.44
443.866	4481.44
443.974	4785.44
444.082	4651.44
444.19	4773.44
444.298	4790.44
444.406	4953.44
444.514	4990.44
444.622	5067.44
444.73	5097.44
444.838	5029.44
444.946	4998.44
445.054	4765.44
445.161	4791.44
445.269	4575.44
445.377	4598.44
445.485	4549.44
445.593	4532.44
445.701	4550.44
445.809	4481.44
445.917	4492.44
446.025	4336.44
446.132	4451.44
446.24	4511.44
446.348	4425.44
446.456	4314.44
446.564	4395.44
446.671	4399.44
446.779	4352.44
446.887	4331.44
446.995	4346.44
447.102	4289.44
447.21	4406.44
447.318	4344.44
447.426	4266.44
447.533	4573.44
447.641	5538.44
447.749	4354.44
447.856	4310.44
447.964	4342.44
448.072	4385.44
448.179	4255.44
448.287	4415.44
448.395	4454.44
448.502	4253.44
448.61	4364.44
448.718	4399.44
448.825	4296.44
448.933	4236.44
449.04	4393.44
449.148	4370.44
449.256	4433.44
449.363	4491.44
449.471	4427.44
449.578	4473.44
449.686	4486.44
449.793	4588.44
449.901	4454.44
450.008	4545.44
450.116	4717.44
450.223	4582.44
450.331	4834.44
450.438	4798.44
450.546	4851.44
450.653	4836.44
450.76	4907.44
450.868	4918.44
450.975	5076.44
451.083	4941.44
451.19	5031.44
451.297	4977.44
451.405	5023.44
451.512	4977.44
451.619	5091.44
451.727	5151.44
451.834	4998.44
451.941	5145.44
452.049	5041.44
452.156	5078.44
452.263	5190.44
452.371	5152.44
452.478	5183.44
452.585	5356.44
452.692	5029.44
452.8	5192.44
452.907	5406.44
453.014	5255.44
453.121	5231.44
453.229	5348.44
453.336	5362.44
453.443	5388.44
453.55	5374.44
453.657	5261.44
453.765	5474.44
453.872	5416.44
453.979	5481.44
454.086	5478.44
454.193	5494.44
454.3	5416.44
454.407	5624.44
454.514	5593.44
454.621	5597.44
454.729	5485.44
454.836	5608.44
454.943	5683.44
455.05	5593.44
455.157	5714.44
455.264	5563.44
455.371	5663.44
455.478	5707.44
455.585	5897.44
455.692	5861.44
455.799	5862.44
455.906	5704.44
456.013	5790.44
456.12	5707.44
456.227	5819.44
456.334	5949.44
456.44	6022.44
456.547	5930.44
456.654	5903.44
456.761	5988.44
456.868	6073.44
456.975	6168.44
457.082	6034.44
457.189	5852.44
457.296	6080.44
457.402	6125.44
457.509	5918.44
457.616	6195.44
457.723	6562.44
457.83	6267.44
457.936	6277.44
458.043	6777.44
458.15	6382.44
458.257	6507.44
458.363	6592.44
458.47	6670.44
458.577	6853.44
458.684	6814.44
458.79	7029.44
458.897	7069.44
459.004	7184.44
459.11	7208.44
459.217	7214.44
459.324	7224.44
459.43	7539.44
459.537	7657.44
459.644	7534.44
459.75	7676.44
459.857	8146.44
459.964	7815.44
460.07	7855.44
460.177	8021.44
460.283	8069.44
460.39	8158.44
460.496	8098.44
460.603	7996.44
460.71	8037.44
460.816	8107.44
460.923	7941.44
461.029	7944.44
461.136	8013.44
461.242	8020.44
461.349	7992.44
461.455	8051.44
461.562	8398.44
461.668	8207.44
461.774	8093.44
461.881	8251.44
461.987	8374.44
462.094	8406.44
462.2	8542.44
462.307	8515.44
462.413	8484.44
462.519	8810.44
462.626	9169.44
462.732	9038.44
462.838	9466.44
462.945	9741.44
463.051	9723.44
463.157	9692.44
463.264	9447.44
463.37	9137.44
463.476	8827.44
463.583	8888.44
463.689	8651.44
463.795	8687.44
463.901	8739.44
464.008	8945.44
464.114	8839.44
464.22	8849.44
464.326	8832.44
464.433	8466.44
464.539	8414.44
464.645	8201.44
464.751	8409.44
464.857	7951.44
464.963	7707.44
465.07	7559.44
465.176	7352.44
465.282	7140.44
465.388	7036.44
465.494	6743.44
465.6	6707.44
465.706	6521.44
465.812	6509.44
465.918	6506.44
466.024	6345.44
466.131	6351.44
466.237	6171.44
466.343	6020.44
466.449	5899.44
466.555	5811.44
466.661	5754.44
466.767	5775.44
466.873	5762.44
466.979	5874.44
467.085	5692.44
467.191	5606.44
467.296	5663.44
467.402	5713.44
467.508	5532.44
467.614	5717.44
467.72	5577.44
467.826	5298.44
467.932	5453.44
468.038	5357.44
468.144	5219.44
468.25	5210.44
468.355	5173.44
468.461	5214.44
468.567	5157.44
468.673	5096.44
468.779	5157.44
468.885	5054.44
468.99	5014.44
469.096	5101.44
469.202	5227.44
469.308	5168.44
469.413	5320.44
469.519	5216.44
469.625	5153.44
469.731	5272.44
469.836	5197.44
469.942	5352.44
470.048	5323.44
470.153	5327.44
470.259	5323.44
470.365	5335.44
470.47	5375.44
470.576	5197.44
470.682	5113.44
470.787	5162.44
470.893	4983.44
470.999	5106.44
471.104	4986.44
471.21	4865.44
471.315	4727.44
471.421	4650.44
471.527	4988.44
471.632	4725.44
471.738	4774.44
471.843	4696.44
471.949	4634.44
472.054	4664.44
472.16	4552.44
472.265	4599.44
472.371	4440.44
472.476	4504.44
472.582	4598.44
472.687	4408.44
472.793	4380.44
472.898	4448.44
473.003	4332.44
473.109	4293.44
473.214	4286.44
473.32	4224.44
473.425	4306.44
473.53	4344.44
473.636	4271.44
473.741	4282.44
473.847	4269.44
473.952	4342.44
474.057	4271.44
474.163	4271.44
474.268	4278.44
474.373	4338.44
474.478	4162.44
474.584	4223.44
474.689	4278.44
474.794	4271.44
474.9	4605.44
475.005	4278.44
475.11	4373.44
475.215	4247.44
475.321	4264.44
475.426	4429.44
475.531	4495.44
475.636	4291.44
475.741	4264.44
475.846	4442.44
475.952	4528.44
476.057	4390.44
476.162	4395.44
476.267	4493.44
476.372	4653.44
476.477	4361.44
476.582	4542.44
476.687	4489.44
476.793	4404.44
476.898	4557.44
477.003	4550.44
477.108	4386.44
477.213	4503.44
477.318	4536.44
477.423	4649.44
477.528	4737.44
477.633	4832.44
477.738	4780.44
477.843	4683.44
477.948	4814.44
478.053	4872.44
478.158	4806.44
478.263	4903.44
478.368	5007.44
478.473	5057.44
478.578	4954.44
478.682	4987.44
478.787	5103.44
478.892	5018.44
478.997	5195.44
479.102	4986.44
479.207	5051.44
479.312	5177.44
479.417	5152.44
479.521	5088.44
479.626	5375.44
479.731	5410.44
479.836	5232.44
479.941	5384.44
480.045	5449.44
480.15	5477.44
480.255	5495.44
480.36	5605.44
480.465	5430.44
480.569	5636.44
480.674	5498.44
480.779	5390.44
480.883	5256.44
480.988	5401.44
481.093	5377.44
481.197	5324.44
481.302	5336.44
481.407	5323.44
481.511	6628.44
481.616	5361.44
481.721	5328.44
481.825	5463.44
481.93	5156.44
482.035	5391.44
482.139	5265.44
482.244	5290.44
482.348	5295.44
482.453	5374.44
482.557	5413.44
482.662	5389.44
482.767	5406.44
482.871	5358.44
482.976	5403.44
483.08	5502.44
483.185	5676.44
483.289	5462.44
483.394	5601.44
483.498	5541.44
483.603	5560.44
483.707	5638.44
483.811	5785.44
483.916	5726.44
484.02	5685.44
484.125	5880.44
484.229	5902.44
484.333	6040.44
484.438	5917.44
484.542	5923.44
484.647	5901.44
484.751	6113.44
484.855	6033.44
484.96	5996.44
485.064	6103.44
485.168	6325.44
485.273	6185.44
485.377	6218.44
485.481	6677.44
485.585	6331.44
485.69	6275.44
485.794	6430.44
485.898	6452.44
486.002	6306.44
486.107	6400.44
486.211	6395.44
486.315	6451.44
486.419	6429.44
486.524	6398.44
486.628	6510.44
486.732	6392.44
486.836	6390.44
486.94	6545.44
487.044	6382.44
487.148	6518.44
487.253	6466.44
487.357	6576.44
487.461	6807.44
487.565	6508.44
487.669	6511.44
487.773	6490.44
487.877	6622.44
487.981	6652.44
488.085	6500.44
488.189	6556.44
488.293	6648.44
488.397	7093.44
488.501	6557.44
488.605	6635.44
488.709	6475.44
488.813	6657.44
488.917	6555.44
489.021	6472.44
489.125	6859.44
489.229	6517.44
489.333	6822.44
489.437	6664.44
489.541	6693.44
489.645	6587.44
489.749	6581.44
489.853	6857.44
489.956	6725.44
490.06	6702.44
490.164	6760.44
490.268	6657.44
490.372	6715.44
490.476	6668.44
490.579	6695.44
490.683	7343.44
490.787	6769.44
490.891	6768.44
490.995	6721.44
491.098	6798.44
491.202	6791.44
491.306	6686.44
491.41	6621.44
491.513	6681.44
491.617	6689.44
491.721	6853.44
491.824	6894.44
491.928	6814.44
492.032	6992.44
492.136	6664.44
492.239	6765.44
492.343	6794.44
492.446	7224.44
492.55	6827.44
492.654	6693.44
492.757	6616.44
492.861	6832.44
492.965	6630.44
493.068	6803.44
493.172	6855.44
493.275	6728.44
493.379	6663.44
493.482	6814.44
493.586	6949.44
493.689	6958.44
493.793	6809.44
493.896	6882.44
494	6831.44
494.103	6750.44
494.207	7079.44
494.31	7118.44
494.414	6937.44
494.517	6729.44
494.621	6627.44
494.724	6779.44
494.828	6679.44
494.931	6757.44
495.034	6617.44
495.138	6779.44
495.241	6641.44
495.345	7477.44
495.448	6757.44
495.551	6634.44
495.655	6653.44
495.758	6624.44
495.861	6543.44
495.965	6676.44
496.068	6702.44
496.171	6668.44
496.274	6778.44
496.378	6785.44
496.481	6789.44
496.584	6767.44
496.687	6725.44
496.791	6910.44
496.894	6886.44
496.997	6958.44
497.1	6830.44
497.204	6986.44
497.307	7000.44
497.41	7155.44
497.513	7298.44
497.616	7174.44
497.719	7141.44
497.823	7267.44
497.926	7402.44
498.029	7512.44
498.132	7622.44
498.235	7910.44
498.338	7867.44
498.441	8113.44
498.544	8257.44
498.647	8505.44
498.75	8635.44
498.853	9090.44
498.956	9061.44
499.059	9535.44
499.163	9528.44
499.266	9981.44
499.369	10250.44
499.471	10680.44
499.574	10984.44
499.677	11242.44
499.78	11743.44
499.883	12361.44
499.986	12945.44
500.089	13219.44
500.192	13559.44
500.295	13732.44
500.398	13479.44
500.501	13384.44
500.604	12938.44
500.707	12582.44
500.809	12194.44
500.912	11969.44
501.015	11311.44
501.118	10649.44
501.221	10435.44
501.324	9906.44
501.426	9538.44
501.529	9093.44
501.632	8809.44
501.735	8451.44
501.837	8296.44
501.94	8099.44
502.043	7888.44
502.146	7733.44
502.248	7642.44
502.351	7329.44
502.454	7237.44
502.557	7076.44
502.659	7013.44
502.762	6601.44
502.865	6681.44
502.967	6582.44
503.07	6466.44
503.173	6230.44
503.275	6309.44
503.378	6168.44
503.48	6168.44
503.583	6271.44
503.686	6112.44
503.788	6262.44
503.891	6080.44
503.993	6238.44
504.096	5834.44
504.198	6129.44
504.301	6000.44
504.403	6030.44
504.506	6061.44
504.608	5983.44
504.711	5768.44
504.813	5768.44
504.916	5582.44
505.018	5360.44
505.121	5171.44
505.223	5428.44
505.326	5170.44
505.428	5218.44
505.531	5197.44
505.633	5090.44
505.735	4912.44
505.838	4876.44
505.94	5013.44
506.042	4773.44
506.145	4831.44
506.247	4898.44
506.35	4730.44
506.452	4743.44
506.554	4834.44
506.656	4807.44
506.759	4642.44
506.861	4673.44
506.963	4594.44
507.066	4594.44
507.168	4704.44
507.27	4674.44
507.372	4518.44
507.475	4582.44
507.577	4617.44
507.679	4460.44
507.781	4421.44
507.883	4535.44
507.986	4356.44
508.088	4442.44
508.19	4466.44
508.292	4404.44
508.394	4399.44
508.496	4304.44
508.598	4397.44
508.701	4397.44
508.803	4333.44
508.905	4341.44
509.007	4341.44
509.109	4321.44
509.211	4362.44
509.313	4239.44
509.415	4272.44
509.517	4351.44
509.619	4151.44
509.721	4174.44
509.823	4201.44
509.925	4411.44
510.027	4205.44
510.129	4384.44
510.231	4300.44
510.333	4188.44
510.435	4145.44
510.537	4334.44
510.639	4246.44
510.741	4135.44
510.843	4329.44
510.945	4155.44
511.047	4147.44
511.148	4277.44
511.25	4174.44
511.352	4118.44
511.454	4126.44
511.556	4338.44
511.658	4218.44
511.76	4246.44
511.861	4459.44
511.963	4249.44
512.065	4125.44
512.167	4137.44
512.268	4418.44
512.37	4192.44
512.472	4265.44
512.574	4346.44
512.676	4364.44
512.777	4247.44
512.879	4242.44
512.981	4183.44
513.082	4234.44
513.184	4320.44
513.286	4815.44
513.387	4327.44
513.489	4453.44
513.591	4348.44
513.692	4429.44
513.794	4485.44
513.896	4303.44
513.997	4230.44
514.099	4291.44
514.2	4488.44
514.302	4444.44
514.404	4426.44
514.505	4407.44
514.607	4509.44
514.708	4407.44
514.81	4441.44
514.911	4570.44
515.013	4623.44
515.114	4581.44
515.216	4571.44
515.317	4603.44
515.419	4569.44
515.52	4774.44
515.622	4687.44
515.723	4689.44
515.825	4955.44
515.926	4821.44
516.027	4859.44
516.129	4821.44
516.23	4972.44
516.332	5119.44
516.433	5080.44
516.534	5318.44
516.636	5301.44
516.737	5216.44
516.838	6431.44
516.94	5549.44
517.041	5581.44
517.142	5902.44
517.244	5916.44
517.345	5864.44
517.446	5944.44
517.547	6062.44
517.649	5881.44
517.75	6045.44
517.851	6097.44
517.952	6212.44
518.054	6032.44
518.155	6093.44
518.256	5749.44
518.357	5920.44
518.458	5690.44
518.56	5512.44
518.661	5469.44
518.762	5371.44
518.863	5520.44
518.964	5432.44
519.065	5279.44
519.166	5229.44
519.268	5091.44
519.369	5460.44
519.47	5262.44
519.571	5198.44
519.672	4975.44
519.773	5000.44
519.874	5065.44
519.975	5143.44
520.076	4981.44
520.177	5083.44
520.278	4974.44
520.379	4964.44
520.48	4972.44
520.581	4779.44
520.682	4848.44
520.783	4983.44
520.884	4998.44
520.985	4821.44
521.086	4919.44
521.187	4940.44
521.288	4849.44
521.389	4954.44
521.489	4783.44
521.59	4678.44
521.691	4824.44
521.792	4913.44
521.893	4862.44
521.994	4912.44
522.095	4932.44
522.195	4868.44
522.296	5004.44
522.397	4972.44
522.498	4831.44
522.599	4780.44
522.699	4827.44
522.8	4913.44
522.901	4867.44
523.002	4899.44
523.102	5084.44
523.203	4909.44
523.304	4979.44
523.405	4929.44
523.505	4774.44
523.606	4845.44
523.707	4915.44
523.807	4797.44
523.908	4937.44
524.009	5040.44
524.109	4881.44
524.21	4770.44
524.31	4893.44
524.411	4896.44
524.512	5034.44
524.612	5001.44
524.713	5071.44
524.813	4852.44
524.914	5236.44
525.014	10382.44
525.115	5266.44
525.216	4911.44
525.316	5013.44
525.417	4958.44
525.517	4764.44
525.618	4735.44
525.718	4804.44
525.819	4750.44
525.919	4920.44
526.019	4829.44
526.12	4885.44
526.22	4698.44
526.321	4860.44
526.421	4713.44
526.522	4802.44
526.622	4786.44
526.722	4742.44
526.823	4851.44
526.923	4854.44
527.023	4917.44
527.124	4828.44
527.224	4873.44
527.324	4805.44
527.425	4773.44
527.525	4777.44
527.625	4857.44
527.726	4747.44
527.826	4743.44
527.926	4906.44
528.026	4805.44
528.127	4822.44
528.227	4809.44
528.327	4927.44
528.427	4823.44
528.528	4839.44
528.628	4963.44
528.728	4840.44
528.828	4869.44
528.928	4957.44
529.029	4818.44
529.129	4802.44
529.229	4793.44
529.329	4749.44
529.429	4849.44
529.529	4915.44
529.629	4731.44
529.729	4754.44
529.829	4913.44
529.93	4732.44
530.03	4742.44
530.13	4695.44
530.23	4751.44
530.33	4787.44
530.43	4685.44
530.53	4730.44
530.63	4710.44
530.73	4565.44
530.83	4546.44
530.93	4591.44
531.03	4583.44
531.13	4709.44
531.23	4594.44
531.33	4572.44
531.429	4683.44
531.529	4693.44
531.629	4631.44
531.729	4437.44
531.829	4572.44
531.929	4541.44
532.029	4604.44
532.129	4476.44
532.229	4688.44
532.328	4520.44
532.428	4473.44
532.528	4502.44
532.628	4405.44
532.728	4496.44
532.827	4485.44
532.927	4482.44
533.027	4369.44
533.127	4637.44
533.227	4486.44
533.326	4537.44
533.426	4395.44
533.526	4496.44
533.625	4512.44
533.725	4603.44
533.825	4460.44
533.924	4276.44
534.024	4196.44
534.124	4277.44
534.223	4392.44
534.323	4594.44
534.423	4395.44
534.522	4321.44
534.622	4166.44
534.722	4217.44
534.821	4259.44
534.921	4181.44
535.02	4103.44
535.12	4238.44
535.219	4248.44
535.319	4274.44
535.419	4260.44
535.518	4082.44
535.618	4079.44
535.717	4209.44
535.817	3938.44
535.916	3913.44
536.016	4151.44
536.115	4016.44
536.215	3939.44
536.314	3894.44
536.413	3933.44
536.513	3950.44
536.612	3865.44
536.712	3894.44
536.811	3782.44
536.91	3736.44
537.01	3762.44
537.109	3849.44
537.209	3780.44
537.308	3772.44
537.407	3794.44
537.507	3669.44
537.606	3778.44
537.705	3806.44
537.805	3672.44
537.904	3653.44
538.003	3756.44
538.102	3779.44
538.202	3701.44
538.301	3749.44
538.4	3681.44
538.499	3723.44
538.599	3694.44
538.698	3925.44
538.797	3687.44
538.896	3752.44
538.995	3721.44
539.095	3616.44
539.194	3848.44
539.293	3736.44
539.392	3554.44
539.491	3703.44
539.59	3658.44
539.689	3706.44
539.789	3623.44
539.888	3418.44
539.987	3397.44
540.086	3431.44
540.185	3566.44
540.284	3637.44
540.383	3560.44
540.482	3463.44
540.581	3553.44
540.68	3445.44
540.779	3528.44
540.878	3560.44
540.977	3559.44
541.076	3453.44
541.175	3563.44
541.274	3710.44
541.373	3532.44
541.472	3553.44
541.571	3484.44
541.67	4761.44
541.769	3596.44
541.868	3537.44
541.966	3585.44
542.065	3430.44
542.164	3559.44
542.263	3364.44
542.362	3414.44
542.461	3439.44
542.56	3390.44
542.658	3447.44
542.757	3316.44
542.856	3286.44
542.955	3271.44
543.054	3244.44
543.152	3491.44
543.251	3412.44
543.35	3480.44
543.449	3458.44
543.547	3312.44
543.646	3293.44
543.745	3384.44
543.843	3388.44
543.942	3462.44
544.041	3442.44
544.14	3444.44
544.238	3317.44
544.337	3582.44
544.436	3485.44
544.534	3480.44
544.633	3434.44
544.731	3417.44
544.83	3434.44
544.929	3428.44
545.027	3367.44
545.126	3404.44
545.224	3514.44
545.323	3367.44
545.421	3414.44
545.52	3416.44
545.619	3447.44
545.717	3428.44
545.816	3377.44
545.914	3470.44
546.013	3706.44
546.111	3490.44
546.209	3277.44
546.308	3341.44
546.406	3333.44
546.505	3556.44
546.603	3460.44
546.702	3298.44
546.8	3332.44
546.899	3277.44
546.997	3513.44
547.095	3438.44
547.194	3383.44
547.292	3450.44
547.39	3492.44
547.489	3399.44
547.587	3747.44
547.685	3436.44
547.784	3612.44
547.882	3431.44
547.98	3364.44
548.079	3453.44
548.177	3325.44
548.275	3287.44
548.373	3537.44
548.472	3414.44
548.57	3423.44
548.668	3502.44
548.766	3277.44
548.864	3516.44
548.963	3402.44
549.061	3544.44
549.159	3364.44
549.257	3457.44
549.355	3428.44
549.454	3355.44
549.552	3496.44
549.65	3369.44
549.748	3301.44
549.846	3495.44
549.944	3362.44
550.042	3344.44
550.14	3409.44
550.238	3312.44
550.336	3250.44
550.434	3234.44
550.532	3247.44
550.631	3394.44
550.729	3276.44
550.827	3446.44
550.925	3253.44
551.023	3292.44
551.121	3295.44
551.218	3245.44
551.316	3272.44
551.414	3305.44
551.512	3177.44
551.61	3269.44
551.708	3386.44
551.806	3413.44
551.904	3322.44
552.002	3301.44
552.1	3469.44
552.198	3374.44
552.296	3575.44
552.393	3618.44
552.491	3702.44
552.589	3642.44
552.687	3718.44
552.785	3618.44
552.882	3687.44
552.98	3856.44
553.078	3789.44
553.176	3670.44
553.274	3586.44
553.371	3690.44
553.469	3578.44
553.567	3678.44
553.665	3657.44
553.762	4057.44
553.86	3638.44
553.958	3603.44
554.055	3506.44
554.153	3513.44
554.251	3549.44
554.348	3571.44
554.446	3383.44
554.544	3424.44
554.641	3676.44
554.739	3268.44
554.837	3353.44
554.934	3380.44
555.032	3261.44
555.129	3237.44
555.227	3646.44
555.324	7356.44
555.422	3532.44
555.519	3347.44
555.617	3277.44
555.715	3078.44
555.812	3607.44
555.91	3207.44
556.007	3158.44
556.105	3116.44
556.202	3198.44
556.299	3064.44
556.397	3149.44
556.494	3145.44
556.592	3083.44
556.689	3105.44
556.787	3208.44
556.884	3112.44
556.981	3129.44
557.079	3050.44
557.176	3161.44
557.273	3081.44
557.371	3089.44
557.468	3080.44
557.566	3127.44
557.663	3038.44
557.76	3185.44
557.857	3058.44
557.955	3099.44
558.052	3252.44
558.149	3228.44
558.247	3159.44
558.344	3050.44
558.441	2968.44
558.538	3049.44
558.636	2971.44
558.733	3120.44
558.83	3106.44
558.927	3018.44
559.024	3074.44
559.122	3023.44
559.219	3076.44
559.316	3148.44
559.413	3192.44
559.51	3029.44
559.607	3050.44
559.704	3135.44
559.801	3120.44
559.899	3029.44
559.996	3374.44
560.093	3189.44
560.19	3046.44
560.287	3198.44
560.384	3249.44
560.481	3102.44
560.578	3105.44
560.675	3078.44
560.772	3162.44
560.869	3114.44
560.966	3326.44
561.063	3112.44
561.16	3192.44
561.257	3227.44
561.354	3127.44
561.451	3095.44
561.548	3177.44
561.645	3340.44
561.742	3097.44
561.838	3224.44
561.935	3155.44
562.032	3109.44
562.129	3130.44
562.226	3177.44
562.323	3138.44
562.42	3228.44
562.516	3264.44
562.613	3143.44
562.71	3171.44
562.807	3995.44
562.904	3209.44
563	3227.44
563.097	3239.44
563.194	3220.44
563.291	3230.44
563.387	3230.44
563.484	3378.44
563.581	3213.44
563.678	3192.44
563.774	3754.44
563.871	3337.44
563.968	3374.44
564.064	3408.44
564.161	3346.44
564.258	3397.44
564.354	3517.44
564.451	3445.44
564.548	3440.44
564.644	3465.44
564.741	3530.44
564.837	3480.44
564.934	3571.44
565.031	3569.44
565.127	3591.44
565.224	3780.44
565.32	3901.44
565.417	3741.44
565.513	3870.44
565.61	4036.44
565.706	4015.44
565.803	3988.44
565.899	4061.44
565.996	4282.44
566.092	4255.44
566.189	4306.44
566.285	4463.44
566.382	4516.44
566.478	4698.44
566.574	4958.44
566.671	4857.44
566.767	4849.44
566.864	4885.44
566.96	4935.44
567.056	4900.44
567.153	5294.44
567.249	5177.44
567.345	5246.44
567.442	5306.44
567.538	5474.44
567.634	5416.44
567.731	5464.44
567.827	5480.44
567.923	5413.44
568.019	5154.44
568.116	5070.44
568.212	4792.44
568.308	4730.44
568.404	4655.44
568.501	4493.44
568.597	4303.44
568.693	4196.44
568.789	4776.44
568.885	4009.44
568.982	3865.44
569.078	3820.44
569.174	3727.44
569.27	3502.44
569.366	3647.44
569.462	3589.44
569.558	3497.44
569.655	3486.44
569.751	3414.44
569.847	3367.44
569.943	3372.44
570.039	3281.44
570.135	3724.44
570.231	3244.44
570.327	3491.44
570.423	3372.44
570.519	3350.44
570.615	3339.44
570.711	3383.44
570.807	3335.44
570.903	3252.44
570.999	3238.44
571.095	3280.44
571.191	3238.44
571.287	3235.44
571.383	3157.44
571.479	3074.44
571.574	3239.44
571.67	3022.44
571.766	3213.44
571.862	2977.44
571.958	2961.44
572.054	2992.44
572.15	2850.44
572.246	2855.44
572.341	2939.44
572.437	2831.44
572.533	2922.44
572.629	2870.44
572.725	2854.44
572.82	2824.44
572.916	2874.44
573.012	2712.44
573.108	2839.44
573.203	2701.44
573.299	2664.44
573.395	2664.44
573.49	2655.44
573.586	2595.44
573.682	2706.44
573.778	2789.44
573.873	2583.44
573.969	2539.44
574.065	2627.44
574.16	2567.44
574.256	2608.44
574.351	2707.44
574.447	2559.44
574.543	2603.44
574.638	2699.44
574.734	2600.44
574.829	2768.44
574.925	2583.44
575.02	2517.44
575.116	2494.44
575.212	2474.44
575.307	2682.44
575.403	2477.44
575.498	2553.44
575.594	2462.44
575.689	2509.44
575.784	2509.44
575.88	2560.44
575.975	2561.44
576.071	2344.44
576.166	2344.44
576.262	2448.44
576.357	2387.44
576.452	2534.44
576.548	2454.44
576.643	2314.44
576.739	2455.44
576.834	2480.44
576.929	2316.44
577.025	2960.44
577.12	2330.44
577.215	2201.44
577.311	2286.44
577.406	2374.44
577.501	2462.44
577.597	2169.44
577.692	2406.44
577.787	2331.44
577.882	2200.44
577.978	2235.44
578.073	2165.44
578.168	2101.44
578.263	2207.44
578.358	2179.44
578.454	2123.44
578.549	2103.44
578.644	2142.44
578.739	2203.44
578.834	2080.44
578.929	2029.44
579.025	2120.44
579.12	2152.44
579.215	2368.44
579.31	2281.44
579.405	2040.44
579.5	2066.44
579.595	2106.44
579.69	2009.44
579.785	1991.44
579.88	2006.44
579.975	1989.44
580.07	1909.44
580.165	2091.44
580.26	2156.44
580.355	1985.44
580.45	2024.44
580.545	2005.44
580.64	1977.44
580.735	2039.44
580.83	1996.44
580.925	1913.44
581.02	1952.44
581.115	1937.44
581.21	1932.44
581.305	1966.44
581.4	1926.44
581.495	1906.44
581.589	1880.44
581.684	1806.44
581.779	1909.44
581.874	1885.44
581.969	1959.44
582.064	1865.44
582.158	1765.44
582.253	1778.44
582.348	1834.44
582.443	1910.44
582.537	1804.44
582.632	1993.44
582.727	1903.44
582.822	1775.44
582.916	1785.44
583.011	1783.44
583.106	1805.44
583.201	1826.44
583.295	1862.44
583.39	1792.44
583.485	1746.44
583.579	4083.44
583.674	1945.44
583.769	1968.44
583.863	1785.44
583.958	1803.44
584.052	1654.44
584.147	1712.44
584.242	1722.44
584.336	1733.44
584.431	1943.44
584.525	1743.44
584.62	1830.44
584.714	1749.44
584.809	1803.44
584.903	1701.44
584.998	1725.44
585.092	1617.44
585.187	1693.44
585.281	1584.44
585.376	1674.44
585.47	1780.44
585.565	1637.44
585.659	1563.44
585.754	1678.44
585.848	1674.44
585.942	1613.44
586.037	1602.44
586.131	3877.44
586.226	1828.44
586.32	1648.44
586.414	1579.44
586.509	1686.44
586.603	1638.44
586.697	1636.44
586.792	1550.44
586.886	1543.44
586.98	1680.44
587.075	1542.44
587.169	1522.44
587.263	1779.44
587.357	1618.44
587.452	1520.44
587.546	1685.44
587.64	1480.44
587.734	1604.44
587.829	1593.44
587.923	1605.44
588.017	1528.44
588.111	1608.44
588.205	1709.44
588.3	1510.44
588.394	1509.44
588.488	1605.44
588.582	1697.44
588.676	1761.44
588.77	2007.44
588.864	3132.44
588.958	3045.44
589.052	2609.44
589.147	2166.44
589.241	1863.44
589.335	1806.44
589.429	2364.44
589.523	2601.44
589.617	2408.44
589.711	2030.44
589.805	1803.44
589.899	1692.44
589.993	1570.44
590.087	1529.44
590.181	1517.44
590.275	1583.44
590.369	1539.44
590.462	1414.44
590.556	1480.44
590.65	1527.44
590.744	1510.44
590.838	1432.44
590.932	1534.44
591.026	1515.44
591.12	1673.44
591.214	1557.44
591.307	1518.44
591.401	1494.44
591.495	1504.44
591.589	1551.44
591.683	1549.44
591.777	1659.44
591.87	1958.44
591.964	1631.44
592.058	1522.44
592.152	1651.44
592.245	1593.44
592.339	1642.44
592.433	1768.44
592.527	1659.44
592.62	1586.44
592.714	1689.44
592.808	1771.44
592.901	1723.44
592.995	1678.44
593.089	1953.44
593.182	1691.44
593.276	1634.44
593.37	1649.44
593.463	1674.44
593.557	1697.44
593.65	1684.44
593.744	1666.44
593.837	1695.44
593.931	1618.44
594.025	5325.44
594.118	1971.44
594.212	1643.44
594.305	1650.44
594.399	1680.44
594.492	1941.44
594.586	1660.44
594.679	1518.44
594.773	1488.44
594.866	1586.44
594.96	1581.44
595.053	1457.44
595.146	1462.44
595.24	1477.44
595.333	1343.44
595.427	1325.44
595.52	1403.44
595.614	1500.44
595.707	1388.44
595.8	1436.44
595.894	1354.44
595.987	1295.44
596.08	1279.44
596.174	1661.44
596.267	1367.44
596.36	1392.44
596.454	1477.44
596.547	1374.44
596.64	1258.44
596.733	1230.44
596.827	1322.44
596.92	1249.44
597.013	1188.44
597.106	1149.44
597.2	1148.44
597.293	1155.44
597.386	1418.44
597.479	1323.44
597.572	1251.44
597.666	1188.44
597.759	1139.44
597.852	1238.44
597.945	1198.44
598.038	1130.44
598.131	1145.44
598.224	1223.44
598.317	1182.44
598.411	1190.44
598.504	1182.44
598.597	1195.44
598.69	1133.44
598.783	1163.44
598.876	1213.44
598.969	1139.44
599.062	1125.44
599.155	1279.44
599.248	1095.44
599.341	1162.44
599.434	1104.44
599.527	1137.44
599.62	1110.44
599.713	1106.44
599.806	1205.44
599.899	1226.44
599.991	1090.44
600.084	1358.44
600.177	1115.44
600.27	1029.44
600.363	1325.44
600.456	1075.44
600.549	1134.44
600.642	1049.44
600.734	1051.44
600.827	1135.44
600.92	1286.44
601.013	1113.44
601.106	1143.44
601.199	1054.44
601.291	1121.44
601.384	1077.44
601.477	1257.44
601.57	1195.44
601.662	1071.44
601.755	1074.44
601.848	1168.44
601.94	1020.44
602.033	1184.44
602.126	1154.44
602.219	1062.44
602.311	1217.44
602.404	1089.44
602.497	1031.44
602.589	1046.44
602.682	1104.44
602.774	1142.44
602.867	1084.44
602.96	1050.44
603.052	1084.44
603.145	1057.44
603.237	1072.44
603.33	1089.44
603.422	1149.44
603.515	1008.44
603.608	1055.44
603.7	1067.44
603.793	1028.44
603.885	1059.44
603.978	1077.44
604.07	1005.44
604.163	1004.44
604.255	1090.44
604.347	1000.44
604.44	1011.44
604.532	1065.44
604.625	998.44
604.717	959.44
604.81	1077.44
604.902	1018.44
604.994	965.44
605.087	1056.44
605.179	1027.44
605.271	1025.44
605.364	987.44
605.456	1104.44
605.548	1018.44
605.641	1046.44
605.733	1007.44
605.825	1028.44
605.918	981.44
606.01	1154.44
606.102	1497.44
606.194	1023.44
606.287	1152.44
606.379	1022.44
606.471	1034.44
606.563	1029.44
606.655	1145.44
606.748	1069.44
606.84	998.44
606.932	1062.44
607.024	975.44
607.116	929.44
607.208	977.44
607.301	1044.44
607.393	981.44
607.485	975.44
607.577	1054.44
607.669	1116.44
607.761	1064.44
607.853	1295.44
607.945	901.44
608.037	918.44
608.129	1013.44
608.221	1003.44
608.313	923.44
608.405	1056.44
608.497	1049.44
608.589	935.44
608.681	972.44
608.773	1066.44
608.865	991.44
608.957	1031.44
609.049	982.44
609.141	1070.44
609.233	906.44
609.325	961.44
609.417	918.44
609.509	1071.44
609.601	1144.44
609.693	1089.44
609.784	945.44
609.876	989.44
609.968	1069.44
610.06	3096.44
610.152	1184.44
610.244	1777.44
610.335	1080.44
610.427	984.44
610.519	1027.44
610.611	1005.44
610.702	977.44
610.794	984.44
610.886	1062.44
610.978	951.44
611.069	1390.44
611.161	1000.44
611.253	991.44
611.344	846.44
611.436	871.44
611.528	917.44
611.62	861.44
611.711	886.44
611.803	784.44
611.894	786.44
611.986	818.44
612.078	860.44
612.169	800.44
612.261	803.44
612.352	781.44
612.444	759.44
612.536	895.44
612.627	815.44
612.719	685.44
612.81	650.44
612.902	718.44
612.993	746.44
613.085	684.44
613.176	638.44
613.268	673.44
613.359	625.44
613.451	682.44
613.542	682.44
613.634	587.44
613.725	649.44
613.816	762.44
613.908	538.44
613.999	603.44
614.091	521.44
614.182	482.44
614.273	542.44
614.365	550.44
614.456	483.44
614.547	441.44
614.639	442.44
614.73	488.44
614.821	548.44
614.913	427.44
615.004	425.44
615.095	363.44
615.187	414.44
