Data from 14g_HRC06701__55__238.txt Node

Date: Thu Apr 18 01:58:49 CDT 2024
User: Estudiantes 2
Spectrometer: HR+C0670
Trigger mode: 4
Integration Time (sec): 1.000000E0
Scans to average: 1
Electric dark correction enabled: true
Nonlinearity correction enabled: false
Boxcar width: 0
XAxis mode: Wavelengths
Number of Pixels in Spectrum: 2048
>>>>>Begin Spectral Data<<<<<
407.81	-107.5
407.921	-107.5
408.032	-107.5
408.143	-131.5
408.254	-144.5
408.365	57.5
408.476	230.5
408.587	-33.5
408.699	10.5
408.81	-0.5
408.921	-68.5
409.032	-27.5
409.143	57.5
409.254	5.5
409.365	70.5
409.476	31.5
409.587	0.5
409.698	49.5
409.809	128.5
409.92	-71.5
410.031	-0.5
410.142	66.5
410.253	3.5
410.364	8.5
410.475	206.5
410.585	1188.5
410.696	1327.5
410.807	1326.5
410.918	1322.5
411.029	1348.5
411.14	1358.5
411.251	1304.5
411.362	1383.5
411.472	1350.5
411.583	1362.5
411.694	1414.5
411.805	1350.5
411.916	1374.5
412.026	1465.5
412.137	1332.5
412.248	1329.5
412.359	1360.5
412.47	1274.5
412.58	1266.5
412.691	1363.5
412.802	1305.5
412.912	1222.5
413.023	1396.5
413.134	1313.5
413.245	1352.5
413.355	1354.5
413.466	1351.5
413.577	1302.5
413.687	1411.5
413.798	1316.5
413.909	1375.5
414.019	1319.5
414.13	1375.5
414.24	1274.5
414.351	1399.5
414.462	1514.5
414.572	1427.5
414.683	1444.5
414.793	1343.5
414.904	1651.5
415.014	1303.5
415.125	1297.5
415.235	1392.5
415.346	1430.5
415.456	1457.5
415.567	1359.5
415.677	1348.5
415.788	1327.5
415.898	1323.5
416.009	1320.5
416.119	1360.5
416.23	1302.5
416.34	1282.5
416.45	1318.5
416.561	2165.5
416.671	1469.5
416.782	1263.5
416.892	1347.5
417.002	1365.5
417.113	1391.5
417.223	1352.5
417.333	1331.5
417.444	1328.5
417.554	1399.5
417.664	1453.5
417.775	1364.5
417.885	1351.5
417.995	1338.5
418.106	1559.5
418.216	1424.5
418.326	1469.5
418.436	1410.5
418.547	1381.5
418.657	1386.5
418.767	1554.5
418.877	1415.5
418.987	1490.5
419.098	1503.5
419.208	1507.5
419.318	1498.5
419.428	1576.5
419.538	1522.5
419.648	1516.5
419.759	1498.5
419.869	1583.5
419.979	1505.5
420.089	1473.5
420.199	1504.5
420.309	1551.5
420.419	1502.5
420.529	1526.5
420.639	2056.5
420.749	1617.5
420.859	1572.5
420.969	1547.5
421.079	1751.5
421.189	1591.5
421.299	1620.5
421.409	1500.5
421.519	1621.5
421.629	1688.5
421.739	1559.5
421.849	1550.5
421.959	1602.5
422.069	1672.5
422.179	1595.5
422.289	1605.5
422.399	1625.5
422.509	1732.5
422.619	4668.5
422.729	1957.5
422.838	1601.5
422.948	1702.5
423.058	1642.5
423.168	1708.5
423.278	1698.5
423.388	1752.5
423.498	1794.5
423.607	1769.5
423.717	2047.5
423.827	2024.5
423.937	1772.5
424.046	1855.5
424.156	1938.5
424.266	1818.5
424.376	2040.5
424.485	2018.5
424.595	1801.5
424.705	1889.5
424.815	1926.5
424.924	2292.5
425.034	1923.5
425.144	1866.5
425.253	1994.5
425.363	2004.5
425.473	1993.5
425.582	1910.5
425.692	1849.5
425.801	1838.5
425.911	2200.5
426.021	2002.5
426.13	2104.5
426.24	2229.5
426.349	2130.5
426.459	2015.5
426.568	1938.5
426.678	2191.5
426.787	2001.5
426.897	2058.5
427.006	2072.5
427.116	2121.5
427.225	2146.5
427.335	2204.5
427.444	2035.5
427.554	2157.5
427.663	2173.5
427.773	2095.5
427.882	2180.5
427.992	2196.5
428.101	2228.5
428.21	2134.5
428.32	2228.5
428.429	2216.5
428.539	2481.5
428.648	2250.5
428.757	2296.5
428.867	2312.5
428.976	2437.5
429.085	2399.5
429.195	2318.5
429.304	2291.5
429.413	2408.5
429.523	2393.5
429.632	2355.5
429.741	2384.5
429.85	2404.5
429.96	2453.5
430.069	2398.5
430.178	2393.5
430.287	2591.5
430.397	2373.5
430.506	2457.5
430.615	2450.5
430.724	2503.5
430.833	2415.5
430.943	2497.5
431.052	2447.5
431.161	2437.5
431.27	2509.5
431.379	2437.5
431.488	2730.5
431.597	2646.5
431.706	2681.5
431.816	2559.5
431.925	2552.5
432.034	2513.5
432.143	2616.5
432.252	2552.5
432.361	2686.5
432.47	2587.5
432.579	2600.5
432.688	2619.5
432.797	2598.5
432.906	2548.5
433.015	2663.5
433.124	2971.5
433.233	2691.5
433.342	2701.5
433.451	2617.5
433.56	2580.5
433.669	2644.5
433.778	2603.5
433.886	2549.5
433.995	2609.5
434.104	2847.5
434.213	2705.5
434.322	2608.5
434.431	2788.5
434.54	2795.5
434.649	2966.5
434.757	2785.5
434.866	2712.5
434.975	2740.5
435.084	2826.5
435.193	2734.5
435.301	2906.5
435.41	2954.5
435.519	3081.5
435.628	2545.5
435.737	2551.5
435.845	2542.5
435.954	2458.5
436.063	2479.5
436.171	2499.5
436.28	2529.5
436.389	2593.5
436.498	2518.5
436.606	2553.5
436.715	2584.5
436.823	2422.5
436.932	2391.5
437.041	2395.5
437.149	2423.5
437.258	2335.5
437.367	2332.5
437.475	2343.5
437.584	2560.5
437.692	2332.5
437.801	3769.5
437.91	2484.5
438.018	2314.5
438.127	2251.5
438.235	2353.5
438.344	2250.5
438.452	2293.5
438.561	2229.5
438.669	2317.5
438.778	2202.5
438.886	2266.5
438.995	2264.5
439.103	2212.5
439.212	2248.5
439.32	2243.5
439.428	2225.5
439.537	2246.5
439.645	2376.5
439.754	2292.5
439.862	2195.5
439.97	2253.5
440.079	2382.5
440.187	2205.5
440.295	2415.5
440.404	2299.5
440.512	2248.5
440.62	2356.5
440.729	2427.5
440.837	2485.5
440.945	3054.5
441.054	2427.5
441.162	2330.5
441.27	2452.5
441.378	2444.5
441.487	2428.5
441.595	2694.5
441.703	2491.5
441.811	2468.5
441.92	2367.5
442.028	2282.5
442.136	2448.5
442.244	2440.5
442.352	2434.5
442.461	2291.5
442.569	2376.5
442.677	2355.5
442.785	2371.5
442.893	2391.5
443.001	2296.5
443.109	2304.5
443.217	2420.5
443.325	2326.5
443.434	2850.5
443.542	2691.5
443.65	2391.5
443.758	2523.5
443.866	2441.5
443.974	2795.5
444.082	2478.5
444.19	2511.5
444.298	2614.5
444.406	2685.5
444.514	2592.5
444.622	2810.5
444.73	2662.5
444.838	2555.5
444.946	2720.5
445.054	2610.5
445.161	2520.5
445.269	2468.5
445.377	2578.5
445.485	2466.5
445.593	2450.5
445.701	2754.5
445.809	2547.5
445.917	2517.5
446.025	2422.5
446.132	2484.5
446.24	2595.5
446.348	2533.5
446.456	2427.5
446.564	2321.5
446.671	2442.5
446.779	2445.5
446.887	2380.5
446.995	2340.5
447.102	2483.5
447.21	2395.5
447.318	2391.5
447.426	2435.5
447.533	2580.5
447.641	3554.5
447.749	2502.5
447.856	2383.5
447.964	2447.5
448.072	2508.5
448.179	2408.5
448.287	2414.5
448.395	2472.5
448.502	2420.5
448.61	2475.5
448.718	2445.5
448.825	2584.5
448.933	2435.5
449.04	2372.5
449.148	2503.5
449.256	2444.5
449.363	2558.5
449.471	2543.5
449.578	2568.5
449.686	2477.5
449.793	2686.5
449.901	2571.5
450.008	2601.5
450.116	2658.5
450.223	2632.5
450.331	2674.5
450.438	2662.5
450.546	2741.5
450.653	2754.5
450.76	2790.5
450.868	2733.5
450.975	3020.5
451.083	2710.5
451.19	2830.5
451.297	2900.5
451.405	2857.5
451.512	2684.5
451.619	3005.5
451.727	2864.5
451.834	2809.5
451.941	2923.5
452.049	2809.5
452.156	2842.5
452.263	2902.5
452.371	2911.5
452.478	2926.5
452.585	3098.5
452.692	2913.5
452.8	2898.5
452.907	3191.5
453.014	3111.5
453.121	2953.5
453.229	3018.5
453.336	3070.5
453.443	3175.5
453.55	3002.5
453.657	3019.5
453.765	3124.5
453.872	3059.5
453.979	3090.5
454.086	3143.5
454.193	3115.5
454.3	3076.5
454.407	3330.5
454.514	3257.5
454.621	3093.5
454.729	3167.5
454.836	3161.5
454.943	3143.5
455.05	3215.5
455.157	3311.5
455.264	3186.5
455.371	3278.5
455.478	3339.5
455.585	3411.5
455.692	3323.5
455.799	3448.5
455.906	3333.5
456.013	3328.5
456.12	3334.5
456.227	3369.5
456.334	3407.5
456.44	3522.5
456.547	3440.5
456.654	3325.5
456.761	3482.5
456.868	3522.5
456.975	3479.5
457.082	3418.5
457.189	3371.5
457.296	3433.5
457.402	3407.5
457.509	3459.5
457.616	3443.5
457.723	3750.5
457.83	3652.5
457.936	3579.5
458.043	3939.5
458.15	3637.5
458.257	3782.5
458.363	3759.5
458.47	3771.5
458.577	3947.5
458.684	3759.5
458.79	3875.5
458.897	3911.5
459.004	4070.5
459.11	3971.5
459.217	4052.5
459.324	4139.5
459.43	4260.5
459.537	4431.5
459.644	4179.5
459.75	4160.5
459.857	4519.5
459.964	4306.5
460.07	4202.5
460.177	4326.5
460.283	4492.5
460.39	4532.5
460.496	4282.5
460.603	4459.5
460.71	4430.5
460.816	4362.5
460.923	4339.5
461.029	4352.5
461.136	4436.5
461.242	4272.5
461.349	4437.5
461.455	4349.5
461.562	4690.5
461.668	4577.5
461.774	4430.5
461.881	4617.5
461.987	4563.5
462.094	4640.5
462.2	4706.5
462.307	4818.5
462.413	4647.5
462.519	4674.5
462.626	5025.5
462.732	4959.5
462.838	5016.5
462.945	5215.5
463.051	5228.5
463.157	5061.5
463.264	4920.5
463.37	4974.5
463.476	4873.5
463.583	4696.5
463.689	4633.5
463.795	4703.5
463.901	4670.5
464.008	4856.5
464.114	4755.5
464.22	4719.5
464.326	4687.5
464.433	4539.5
464.539	4515.5
464.645	4432.5
464.751	4619.5
464.857	4337.5
464.963	4164.5
465.07	4196.5
465.176	4117.5
465.282	3945.5
465.388	4015.5
465.494	3825.5
465.6	3777.5
465.706	3634.5
465.812	3641.5
465.918	3743.5
466.024	3590.5
466.131	3667.5
466.237	3474.5
466.343	3352.5
466.449	3392.5
466.555	3368.5
466.661	3302.5
466.767	3257.5
466.873	3371.5
466.979	3406.5
467.085	3280.5
467.191	3327.5
467.296	3238.5
467.402	3185.5
467.508	3275.5
467.614	3359.5
467.72	3161.5
467.826	3071.5
467.932	3137.5
468.038	3050.5
468.144	3049.5
468.25	3036.5
468.355	2923.5
468.461	3030.5
468.567	3021.5
468.673	2985.5
468.779	2945.5
468.885	2982.5
468.99	2858.5
469.096	2906.5
469.202	3058.5
469.308	3002.5
469.413	2937.5
469.519	2981.5
469.625	3016.5
469.731	2962.5
469.836	2927.5
469.942	3201.5
470.048	3050.5
470.153	2998.5
470.259	3070.5
470.365	3085.5
470.47	2983.5
470.576	2966.5
470.682	2967.5
470.787	2966.5
470.893	2749.5
470.999	3031.5
471.104	2883.5
471.21	2806.5
471.315	2756.5
471.421	2688.5
471.527	2900.5
471.632	2909.5
471.738	2785.5
471.843	2680.5
471.949	2740.5
472.054	2749.5
472.16	2639.5
472.265	2657.5
472.371	2699.5
472.476	2638.5
472.582	2736.5
472.687	2690.5
472.793	2545.5
472.898	2539.5
473.003	2620.5
473.109	2639.5
473.214	2432.5
473.32	2599.5
473.425	2643.5
473.53	2487.5
473.636	2463.5
473.741	2561.5
473.847	2514.5
473.952	2491.5
474.057	2674.5
474.163	2562.5
474.268	2506.5
474.373	2621.5
474.478	2465.5
474.584	2441.5
474.689	2624.5
474.794	2546.5
474.9	2777.5
475.005	2519.5
475.11	2742.5
475.215	2476.5
475.321	2528.5
475.426	2747.5
475.531	2599.5
475.636	2492.5
475.741	2503.5
475.846	2681.5
475.952	2724.5
476.057	2687.5
476.162	2682.5
476.267	2680.5
476.372	2865.5
476.477	2648.5
476.582	2740.5
476.687	2572.5
476.793	2677.5
476.898	2582.5
477.003	2633.5
477.108	2684.5
477.213	2645.5
477.318	2647.5
477.423	2748.5
477.528	2830.5
477.633	2865.5
477.738	2828.5
477.843	2787.5
477.948	2778.5
478.053	2839.5
478.158	2876.5
478.263	2856.5
478.368	2822.5
478.473	3022.5
478.578	2894.5
478.682	2883.5
478.787	2966.5
478.892	2982.5
478.997	2988.5
479.102	2964.5
479.207	2974.5
479.312	3100.5
479.417	2973.5
479.521	3029.5
479.626	3026.5
479.731	3000.5
479.836	3032.5
479.941	3162.5
480.045	3124.5
480.15	3134.5
480.255	3247.5
480.36	3135.5
480.465	3132.5
480.569	3373.5
480.674	3120.5
480.779	3014.5
480.883	3088.5
480.988	3121.5
481.093	3034.5
481.197	3126.5
481.302	3099.5
481.407	3177.5
481.511	4900.5
481.616	3217.5
481.721	3155.5
481.825	3312.5
481.93	3148.5
482.035	3058.5
482.139	3218.5
482.244	3195.5
482.348	3190.5
482.453	3198.5
482.557	3321.5
482.662	3214.5
482.767	3171.5
482.871	3219.5
482.976	3274.5
483.08	3204.5
483.185	3471.5
483.289	3373.5
483.394	3315.5
483.498	3467.5
483.603	3326.5
483.707	3364.5
483.811	3388.5
483.916	3572.5
484.02	3353.5
484.125	3572.5
484.229	3513.5
484.333	3711.5
484.438	3469.5
484.542	3577.5
484.647	3487.5
484.751	3533.5
484.855	3594.5
484.96	3656.5
485.064	3686.5
485.168	3689.5
485.273	3710.5
485.377	3639.5
485.481	3907.5
485.585	3769.5
485.69	3779.5
485.794	3695.5
485.898	3758.5
486.002	3799.5
486.107	3874.5
486.211	3839.5
486.315	3942.5
486.419	3874.5
486.524	3908.5
486.628	3831.5
486.732	3801.5
486.836	3929.5
486.94	4018.5
487.044	3909.5
487.148	3885.5
487.253	3895.5
487.357	3957.5
487.461	4030.5
487.565	3905.5
487.669	3976.5
487.773	3840.5
487.877	4022.5
487.981	4023.5
488.085	3922.5
488.189	4014.5
488.293	4079.5
488.397	4420.5
488.501	3978.5
488.605	3925.5
488.709	3980.5
488.813	3957.5
488.917	3845.5
489.021	3872.5
489.125	4247.5
489.229	3991.5
489.333	4142.5
489.437	3945.5
489.541	3978.5
489.645	4024.5
489.749	3991.5
489.853	4086.5
489.956	4002.5
490.06	4053.5
490.164	4019.5
490.268	3943.5
490.372	4167.5
490.476	3971.5
490.579	4004.5
490.683	4676.5
490.787	4137.5
490.891	3995.5
490.995	4092.5
491.098	3998.5
491.202	3996.5
491.306	4100.5
491.41	4070.5
491.513	3964.5
491.617	4063.5
491.721	4185.5
491.824	4309.5
491.928	4065.5
492.032	4240.5
492.136	4042.5
492.239	4009.5
492.343	4177.5
492.446	4425.5
492.55	4170.5
492.654	3956.5
492.757	4008.5
492.861	4075.5
492.965	3999.5
493.068	4131.5
493.172	4043.5
493.275	4052.5
493.379	4084.5
493.482	4161.5
493.586	4179.5
493.689	4397.5
493.793	3934.5
493.896	4167.5
494	4114.5
494.103	4161.5
494.207	4304.5
494.31	4442.5
494.414	4217.5
494.517	4058.5
494.621	3957.5
494.724	4081.5
494.828	3983.5
494.931	3950.5
495.034	4039.5
495.138	4164.5
495.241	3923.5
495.345	4741.5
495.448	4096.5
495.551	3913.5
495.655	3942.5
495.758	3981.5
495.861	3908.5
495.965	4006.5
496.068	4026.5
496.171	4038.5
496.274	3909.5
496.378	4087.5
496.481	4022.5
496.584	3977.5
496.687	3950.5
496.791	4034.5
496.894	4072.5
496.997	4077.5
497.1	4175.5
497.204	4098.5
497.307	4014.5
497.41	4315.5
497.513	4317.5
497.616	4146.5
497.719	4173.5
497.823	4274.5
497.926	4247.5
498.029	4416.5
498.132	4401.5
498.235	4437.5
498.338	4562.5
498.441	4724.5
498.544	4645.5
498.647	4698.5
498.75	4978.5
498.853	5172.5
498.956	5048.5
499.059	5457.5
499.163	5264.5
499.266	5434.5
499.369	5608.5
499.471	5800.5
499.574	5984.5
499.677	6129.5
499.78	6419.5
499.883	6464.5
499.986	6966.5
500.089	7011.5
500.192	7037.5
500.295	7170.5
500.398	7075.5
500.501	6927.5
500.604	6857.5
500.707	6658.5
500.809	6395.5
500.912	6206.5
501.015	6110.5
501.118	5833.5
501.221	5674.5
501.324	5390.5
501.426	5327.5
501.529	5002.5
501.632	4964.5
501.735	4778.5
501.837	4621.5
501.94	4557.5
502.043	4500.5
502.146	4451.5
502.248	4308.5
502.351	4182.5
502.454	4169.5
502.557	4058.5
502.659	3956.5
502.762	3939.5
502.865	3801.5
502.967	3766.5
503.07	3783.5
503.173	3765.5
503.275	3657.5
503.378	3625.5
503.48	3642.5
503.583	3736.5
503.686	3647.5
503.788	3865.5
503.891	3583.5
503.993	3858.5
504.096	3522.5
504.198	3534.5
504.301	3544.5
504.403	3555.5
504.506	3503.5
504.608	3411.5
504.711	3499.5
504.813	3428.5
504.916	3325.5
505.018	3299.5
505.121	3172.5
505.223	3295.5
505.326	3144.5
505.428	3278.5
505.531	3138.5
505.633	3022.5
505.735	2982.5
505.838	2972.5
505.94	3009.5
506.042	2975.5
506.145	2914.5
506.247	3031.5
506.35	2921.5
506.452	3063.5
506.554	2974.5
506.656	2954.5
506.759	2866.5
506.861	2911.5
506.963	2811.5
507.066	2918.5
507.168	2977.5
507.27	2826.5
507.372	2798.5
507.475	2852.5
507.577	2788.5
507.679	2761.5
507.781	2782.5
507.883	2794.5
507.986	2745.5
508.088	2816.5
508.19	2779.5
508.292	2721.5
508.394	2762.5
508.496	2606.5
508.598	2600.5
508.701	2749.5
508.803	2745.5
508.905	2651.5
509.007	2739.5
509.109	2786.5
509.211	2742.5
509.313	2672.5
509.415	2713.5
509.517	2700.5
509.619	2652.5
509.721	2834.5
509.823	2588.5
509.925	2786.5
510.027	2667.5
510.129	2700.5
510.231	2597.5
510.333	2623.5
510.435	2603.5
510.537	2657.5
510.639	2733.5
510.741	2704.5
510.843	2642.5
510.945	2601.5
511.047	2759.5
511.148	2691.5
511.25	2590.5
511.352	2631.5
511.454	2551.5
511.556	2659.5
511.658	2669.5
511.76	2752.5
511.861	2787.5
511.963	2587.5
512.065	2684.5
512.167	2577.5
512.268	2788.5
512.37	2693.5
512.472	2609.5
512.574	2676.5
512.676	2713.5
512.777	2574.5
512.879	2608.5
512.981	2615.5
513.082	2687.5
513.184	2626.5
513.286	3105.5
513.387	2831.5
513.489	2760.5
513.591	2725.5
513.692	2825.5
513.794	2680.5
513.896	2603.5
513.997	2733.5
514.099	2617.5
514.2	2808.5
514.302	2734.5
514.404	2725.5
514.505	2759.5
514.607	2829.5
514.708	2790.5
514.81	2809.5
514.911	2847.5
515.013	2993.5
515.114	2824.5
515.216	2837.5
515.317	2813.5
515.419	2802.5
515.52	2852.5
515.622	2891.5
515.723	2951.5
515.825	3047.5
515.926	2980.5
516.027	2985.5
516.129	2978.5
516.23	3061.5
516.332	3138.5
516.433	3030.5
516.534	3251.5
516.636	3203.5
516.737	3112.5
516.838	4239.5
516.94	3407.5
517.041	3312.5
517.142	3460.5
517.244	3541.5
517.345	3531.5
517.446	3568.5
517.547	3630.5
517.649	3579.5
517.75	3522.5
517.851	3476.5
517.952	3751.5
518.054	3491.5
518.155	3607.5
518.256	3441.5
518.357	3572.5
518.458	3345.5
518.56	3333.5
518.661	3367.5
518.762	3231.5
518.863	3356.5
518.964	3442.5
519.065	3159.5
519.166	3242.5
519.268	3198.5
519.369	3494.5
519.47	3177.5
519.571	3222.5
519.672	3143.5
519.773	3101.5
519.874	3193.5
519.975	3291.5
520.076	3111.5
520.177	3224.5
520.278	3222.5
520.379	3090.5
520.48	3021.5
520.581	3089.5
520.682	3068.5
520.783	3071.5
520.884	3125.5
520.985	3058.5
521.086	3103.5
521.187	3128.5
521.288	3085.5
521.389	3118.5
521.489	3034.5
521.59	3109.5
521.691	3071.5
521.792	3044.5
521.893	3287.5
521.994	3269.5
522.095	3048.5
522.195	3198.5
522.296	3203.5
522.397	3218.5
522.498	3202.5
522.599	3058.5
522.699	3137.5
522.8	3163.5
522.901	3220.5
523.002	3111.5
523.102	3348.5
523.203	3236.5
523.304	3358.5
523.405	3154.5
523.505	3210.5
523.606	3221.5
523.707	3297.5
523.807	3223.5
523.908	3214.5
524.009	3295.5
524.109	3258.5
524.21	3233.5
524.31	3278.5
524.411	3340.5
524.512	3387.5
524.612	3317.5
524.713	3393.5
524.813	3290.5
524.914	3512.5
525.014	7561.5
525.115	3626.5
525.216	3183.5
525.316	3219.5
525.417	3346.5
525.517	3305.5
525.618	3169.5
525.718	3175.5
525.819	3162.5
525.919	3154.5
526.019	3153.5
526.12	3260.5
526.22	3068.5
526.321	3053.5
526.421	3075.5
526.522	3077.5
526.622	2994.5
526.722	3010.5
526.823	3162.5
526.923	3049.5
527.023	3152.5
527.124	3106.5
527.224	3151.5
527.324	2994.5
527.425	3088.5
527.525	3053.5
527.625	3038.5
527.726	3123.5
527.826	3196.5
527.926	3121.5
528.026	3165.5
528.127	3203.5
528.227	3180.5
528.327	3285.5
528.427	3245.5
528.528	3231.5
528.628	3272.5
528.728	3282.5
528.828	3356.5
528.928	3358.5
529.029	3299.5
529.129	3311.5
529.229	3310.5
529.329	3238.5
529.429	3310.5
529.529	3295.5
529.629	3171.5
529.729	3210.5
529.829	3296.5
529.93	3106.5
530.03	3151.5
530.13	3102.5
530.23	3063.5
530.33	3164.5
530.43	3017.5
530.53	3062.5
530.63	2998.5
530.73	2945.5
530.83	2857.5
530.93	2911.5
531.03	2901.5
531.13	2932.5
531.23	2909.5
531.33	2946.5
531.429	2978.5
531.529	2935.5
531.629	2955.5
531.729	2858.5
531.829	2824.5
531.929	2962.5
532.029	2974.5
532.129	2872.5
532.229	2966.5
532.328	2968.5
532.428	2823.5
532.528	2834.5
532.628	2874.5
532.728	2946.5
532.827	2862.5
532.927	2960.5
533.027	2869.5
533.127	3079.5
533.227	2984.5
533.326	3049.5
533.426	2839.5
533.526	3092.5
533.625	3077.5
533.725	3210.5
533.825	2957.5
533.924	2839.5
534.024	2662.5
534.124	2707.5
534.223	2857.5
534.323	3204.5
534.423	2810.5
534.522	2811.5
534.622	2691.5
534.722	2692.5
534.821	2813.5
534.921	2759.5
535.02	2625.5
535.12	2798.5
535.219	2895.5
535.319	2868.5
535.419	2767.5
535.518	2755.5
535.618	2804.5
535.717	2734.5
535.817	2631.5
535.916	2550.5
536.016	2708.5
536.115	2498.5
536.215	2571.5
536.314	2490.5
536.413	2445.5
536.513	2512.5
536.612	2486.5
536.712	2521.5
536.811	2527.5
536.91	2510.5
537.01	2384.5
537.109	2548.5
537.209	2496.5
537.308	2452.5
537.407	2472.5
537.507	2561.5
537.606	2456.5
537.705	2462.5
537.805	2495.5
537.904	2383.5
538.003	2451.5
538.102	2594.5
538.202	2517.5
538.301	2581.5
538.4	2606.5
538.499	2589.5
538.599	2590.5
538.698	2747.5
538.797	2535.5
538.896	2624.5
538.995	2568.5
539.095	2495.5
539.194	2684.5
539.293	2507.5
539.392	2472.5
539.491	2502.5
539.59	2400.5
539.689	2510.5
539.789	2446.5
539.888	2247.5
539.987	2240.5
540.086	2392.5
540.185	2344.5
540.284	2419.5
540.383	2473.5
540.482	2385.5
540.581	2440.5
540.68	2503.5
540.779	2567.5
540.878	2504.5
540.977	2506.5
541.076	2547.5
541.175	2545.5
541.274	2750.5
541.373	2628.5
541.472	2571.5
541.571	2492.5
541.67	3870.5
541.769	2662.5
541.868	2464.5
541.966	2581.5
542.065	2483.5
542.164	2465.5
542.263	2423.5
542.362	2502.5
542.461	2490.5
542.56	2478.5
542.658	2487.5
542.757	2303.5
542.856	2254.5
542.955	2279.5
543.054	2241.5
543.152	2507.5
543.251	2360.5
543.35	2469.5
543.449	2388.5
543.547	2424.5
543.646	2352.5
543.745	2359.5
543.843	2516.5
543.942	2566.5
544.041	2408.5
544.14	2512.5
544.238	2480.5
544.337	2588.5
544.436	2498.5
544.534	2601.5
544.633	2541.5
544.731	2535.5
544.83	2575.5
544.929	2519.5
545.027	2439.5
545.126	2503.5
545.224	2571.5
545.323	2403.5
545.421	2497.5
545.52	2556.5
545.619	2457.5
545.717	2506.5
545.816	2628.5
545.914	2598.5
546.013	2750.5
546.111	2662.5
546.209	2509.5
546.308	2376.5
546.406	2454.5
546.505	2628.5
546.603	2504.5
546.702	2423.5
546.8	2534.5
546.899	2442.5
546.997	2494.5
547.095	2624.5
547.194	2474.5
547.292	2479.5
547.39	2605.5
547.489	2475.5
547.587	2753.5
547.685	2427.5
547.784	2756.5
547.882	2556.5
547.98	2446.5
548.079	2588.5
548.177	2467.5
548.275	2415.5
548.373	2664.5
548.472	2440.5
548.57	2489.5
548.668	2585.5
548.766	2442.5
548.864	2605.5
548.963	2522.5
549.061	2715.5
549.159	2449.5
549.257	2536.5
549.355	2538.5
549.454	2426.5
549.552	2544.5
549.65	2494.5
549.748	2456.5
549.846	2446.5
549.944	2447.5
550.042	2474.5
550.14	2453.5
550.238	2500.5
550.336	2447.5
550.434	2311.5
550.532	2331.5
550.631	2561.5
550.729	2446.5
550.827	2528.5
550.925	2419.5
551.023	2379.5
551.121	2325.5
551.218	2316.5
551.316	2208.5
551.414	2216.5
551.512	2207.5
551.61	2318.5
551.708	2338.5
551.806	2322.5
551.904	2363.5
552.002	2351.5
552.1	2426.5
552.198	2445.5
552.296	2603.5
552.393	2605.5
552.491	2663.5
552.589	2554.5
552.687	2606.5
552.785	2546.5
552.882	2740.5
552.98	2763.5
553.078	2661.5
553.176	2702.5
553.274	2517.5
553.371	2581.5
553.469	2653.5
553.567	2523.5
553.665	2515.5
553.762	2969.5
553.86	2658.5
553.958	2579.5
554.055	2465.5
554.153	2613.5
554.251	2465.5
554.348	2489.5
554.446	2444.5
554.544	2518.5
554.641	2813.5
554.739	2492.5
554.837	2434.5
554.934	2514.5
555.032	2420.5
555.129	2358.5
555.227	2591.5
555.324	7468.5
555.422	2784.5
555.519	2329.5
555.617	2338.5
555.715	2264.5
555.812	2625.5
555.91	2246.5
556.007	2425.5
556.105	2281.5
556.202	2281.5
556.299	2222.5
556.397	2296.5
556.494	2222.5
556.592	2276.5
556.689	2369.5
556.787	2228.5
556.884	2212.5
556.981	2301.5
557.079	2191.5
557.176	2315.5
557.273	2356.5
557.371	2404.5
557.468	2320.5
557.566	2302.5
557.663	2325.5
557.76	2297.5
557.857	2267.5
557.955	2346.5
558.052	2324.5
558.149	2382.5
558.247	2497.5
558.344	2222.5
558.441	2201.5
558.538	2305.5
558.636	2268.5
558.733	2290.5
558.83	2343.5
558.927	2312.5
559.024	2271.5
559.122	2252.5
559.219	2311.5
559.316	2320.5
559.413	2356.5
559.51	2263.5
559.607	2289.5
559.704	2272.5
559.801	2332.5
559.899	2234.5
559.996	2530.5
560.093	2371.5
560.19	2213.5
560.287	2298.5
560.384	2490.5
560.481	2312.5
560.578	2258.5
560.675	2224.5
560.772	2384.5
560.869	2302.5
560.966	2399.5
561.063	2364.5
561.16	2393.5
561.257	2338.5
561.354	2346.5
561.451	2309.5
561.548	2278.5
561.645	2489.5
561.742	2270.5
561.838	2317.5
561.935	2360.5
562.032	2340.5
562.129	2309.5
562.226	2360.5
562.323	2346.5
562.42	2320.5
562.516	2257.5
562.613	2344.5
562.71	2274.5
562.807	3075.5
562.904	2307.5
563	2345.5
563.097	2276.5
563.194	2337.5
563.291	2319.5
563.387	2258.5
563.484	2266.5
563.581	2394.5
563.678	2317.5
563.774	2695.5
563.871	2408.5
563.968	2377.5
564.064	2349.5
564.161	2358.5
564.258	2432.5
564.354	2435.5
564.451	2411.5
564.548	2490.5
564.644	2454.5
564.741	2410.5
564.837	2462.5
564.934	2450.5
565.031	2506.5
565.127	2501.5
565.224	2530.5
565.32	2650.5
565.417	2548.5
565.513	2664.5
565.61	2602.5
565.706	2714.5
565.803	2718.5
565.899	2723.5
565.996	2756.5
566.092	2814.5
566.189	2756.5
566.285	2878.5
566.382	2925.5
566.478	3048.5
566.574	3138.5
566.671	3115.5
566.767	3081.5
566.864	2995.5
566.96	3132.5
567.056	3074.5
567.153	3359.5
567.249	3185.5
567.345	3305.5
567.442	3364.5
567.538	3298.5
567.634	3360.5
567.731	3278.5
567.827	3372.5
567.923	3286.5
568.019	3083.5
568.116	2900.5
568.212	2873.5
568.308	2946.5
568.404	2763.5
568.501	2626.5
568.597	2777.5
568.693	2508.5
568.789	3108.5
568.885	2490.5
568.982	2469.5
569.078	2383.5
569.174	2484.5
569.27	2275.5
569.366	2330.5
569.462	2255.5
569.558	2249.5
569.655	2230.5
569.751	2115.5
569.847	2176.5
569.943	2099.5
570.039	2053.5
570.135	2617.5
570.231	2160.5
570.327	2337.5
570.423	2297.5
570.519	2213.5
570.615	2186.5
570.711	2315.5
570.807	2352.5
570.903	2195.5
570.999	2294.5
571.095	2258.5
571.191	2110.5
571.287	2160.5
571.383	2222.5
571.479	2128.5
571.574	2201.5
571.67	2123.5
571.766	2245.5
571.862	2027.5
571.958	2075.5
572.054	2178.5
572.15	1915.5
572.246	1987.5
572.341	2146.5
572.437	1924.5
572.533	1907.5
572.629	1910.5
572.725	1893.5
572.82	1815.5
572.916	2003.5
573.012	1825.5
573.108	1934.5
573.203	1801.5
573.299	1777.5
573.395	1746.5
573.49	1738.5
573.586	1812.5
573.682	1703.5
573.778	1903.5
573.873	1799.5
573.969	1698.5
574.065	1713.5
574.16	1800.5
574.256	1787.5
574.351	1837.5
574.447	1738.5
574.543	1810.5
574.638	1862.5
574.734	1819.5
574.829	2063.5
574.925	1789.5
575.02	1809.5
575.116	1799.5
575.212	1714.5
575.307	1839.5
575.403	1750.5
575.498	1746.5
575.594	1747.5
575.689	1747.5
575.784	1795.5
575.88	1759.5
575.975	1734.5
576.071	1662.5
576.166	1655.5
576.262	1703.5
576.357	1717.5
576.452	1806.5
576.548	1691.5
576.643	1712.5
576.739	1724.5
576.834	1614.5
576.929	1672.5
577.025	2320.5
577.12	1549.5
577.215	1543.5
577.311	1694.5
577.406	1666.5
577.501	1754.5
577.597	1546.5
577.692	1726.5
577.787	1655.5
577.882	1595.5
577.978	1571.5
578.073	1523.5
578.168	1502.5
578.263	1568.5
578.358	1474.5
578.454	1476.5
578.549	1521.5
578.644	1438.5
578.739	1518.5
578.834	1409.5
578.929	1469.5
579.025	1411.5
579.12	1523.5
579.215	1655.5
579.31	1547.5
579.405	1418.5
579.5	1477.5
579.595	1379.5
579.69	1360.5
579.785	1432.5
579.88	1448.5
579.975	1398.5
580.07	1433.5
580.165	1356.5
580.26	1456.5
580.355	1461.5
580.45	1433.5
580.545	1374.5
580.64	1402.5
580.735	1538.5
580.83	1399.5
580.925	1332.5
581.02	1361.5
581.115	1284.5
581.21	1326.5
581.305	1399.5
581.4	1343.5
581.495	1315.5
581.589	1329.5
581.684	1286.5
581.779	1409.5
581.874	1331.5
581.969	1463.5
582.064	1268.5
582.158	1289.5
582.253	1318.5
582.348	1304.5
582.443	1319.5
582.537	1382.5
582.632	1491.5
582.727	1314.5
582.822	1309.5
582.916	1275.5
583.011	1251.5
583.106	1298.5
583.201	1222.5
583.295	1283.5
583.39	1218.5
583.485	1268.5
583.579	3428.5
583.674	1464.5
583.769	1461.5
583.863	1198.5
583.958	1212.5
584.052	1188.5
584.147	1205.5
584.242	1152.5
584.336	1239.5
584.431	1357.5
584.525	1145.5
584.62	1424.5
584.714	1327.5
584.809	1254.5
584.903	1192.5
584.998	1293.5
585.092	1142.5
585.187	1159.5
585.281	1238.5
585.376	1190.5
585.47	1155.5
585.565	1186.5
585.659	1081.5
585.754	1137.5
585.848	1213.5
585.942	1188.5
586.037	1108.5
586.131	3391.5
586.226	1354.5
586.32	1199.5
586.414	1079.5
586.509	1296.5
586.603	1143.5
586.697	1130.5
586.792	1089.5
586.886	1077.5
586.98	1207.5
587.075	1119.5
587.169	1109.5
587.263	1287.5
587.357	1129.5
587.452	1099.5
587.546	1175.5
587.64	1092.5
587.734	1157.5
587.829	1151.5
587.923	1089.5
588.017	1093.5
588.111	1123.5
588.205	1174.5
588.3	1031.5
588.394	1125.5
588.488	1035.5
588.582	1176.5
588.676	1323.5
588.77	1456.5
588.864	2347.5
588.958	2544.5
589.052	2143.5
589.147	1680.5
589.241	1455.5
589.335	1365.5
589.429	1830.5
589.523	2047.5
589.617	1995.5
589.711	1613.5
589.805	1321.5
589.899	1315.5
589.993	1084.5
590.087	1019.5
590.181	1046.5
590.275	1065.5
590.369	1106.5
590.462	1003.5
590.556	962.5
590.65	999.5
590.744	1047.5
590.838	1014.5
590.932	1000.5
591.026	1039.5
591.12	1242.5
591.214	1039.5
591.307	1095.5
591.401	1106.5
591.495	1093.5
591.589	1016.5
591.683	1100.5
591.777	1122.5
591.87	1406.5
591.964	1083.5
592.058	1046.5
592.152	1174.5
592.245	1044.5
592.339	1178.5
592.433	1171.5
592.527	1079.5
592.62	1110.5
592.714	1102.5
592.808	1132.5
592.901	1183.5
592.995	1111.5
593.089	1260.5
593.182	1144.5
593.276	1109.5
593.37	1075.5
593.463	1145.5
593.557	1160.5
593.65	1027.5
593.744	1079.5
593.837	1253.5
593.931	1027.5
594.025	4294.5
594.118	1465.5
594.212	1122.5
594.305	1023.5
594.399	1153.5
594.492	1452.5
594.586	1067.5
594.679	1036.5
594.773	1102.5
594.866	1076.5
594.96	1046.5
595.053	996.5
595.146	989.5
595.24	932.5
595.333	986.5
595.427	927.5
595.52	856.5
595.614	1123.5
595.707	1020.5
595.8	934.5
595.894	963.5
595.987	926.5
596.08	843.5
596.174	1300.5
596.267	1056.5
596.36	1007.5
596.454	1060.5
596.547	980.5
596.64	885.5
596.733	855.5
596.827	1029.5
596.92	895.5
597.013	814.5
597.106	811.5
597.2	865.5
597.293	839.5
597.386	1090.5
597.479	1027.5
597.572	881.5
597.666	814.5
597.759	870.5
597.852	912.5
597.945	746.5
598.038	770.5
598.131	892.5
598.224	805.5
598.317	889.5
598.411	872.5
598.504	768.5
598.597	909.5
598.69	857.5
598.783	801.5
598.876	892.5
598.969	879.5
599.062	759.5
599.155	859.5
599.248	786.5
599.341	847.5
599.434	774.5
599.527	847.5
599.62	915.5
599.713	738.5
599.806	875.5
599.899	1015.5
599.991	778.5
600.084	1027.5
600.177	792.5
600.27	776.5
600.363	962.5
600.456	840.5
600.549	890.5
600.642	742.5
600.734	800.5
600.827	867.5
600.92	953.5
601.013	828.5
601.106	936.5
601.199	777.5
601.291	807.5
601.384	888.5
601.477	1014.5
601.57	888.5
601.662	799.5
601.755	885.5
601.848	829.5
601.94	776.5
602.033	1008.5
602.126	831.5
602.219	771.5
602.311	1002.5
602.404	803.5
602.497	824.5
602.589	825.5
602.682	882.5
602.774	836.5
602.867	837.5
602.96	827.5
603.052	808.5
603.145	774.5
603.237	817.5
603.33	792.5
603.422	927.5
603.515	797.5
603.608	815.5
603.7	814.5
603.793	886.5
603.885	854.5
603.978	754.5
604.07	769.5
604.163	759.5
604.255	806.5
604.347	701.5
604.44	734.5
604.532	755.5
604.625	793.5
604.717	765.5
604.81	809.5
604.902	702.5
604.994	710.5
605.087	726.5
605.179	741.5
605.271	822.5
605.364	803.5
605.456	818.5
605.548	772.5
605.641	834.5
605.733	787.5
605.825	794.5
605.918	758.5
606.01	952.5
606.102	1239.5
606.194	864.5
606.287	971.5
606.379	737.5
606.471	782.5
606.563	868.5
606.655	790.5
606.748	884.5
606.84	823.5
606.932	859.5
607.024	775.5
607.116	782.5
607.208	758.5
607.301	848.5
607.393	810.5
607.485	801.5
607.577	839.5
607.669	862.5
607.761	886.5
607.853	1059.5
607.945	749.5
608.037	756.5
608.129	742.5
608.221	782.5
608.313	776.5
608.405	799.5
608.497	812.5
608.589	786.5
608.681	747.5
608.773	894.5
608.865	860.5
608.957	761.5
609.049	707.5
609.141	866.5
609.233	730.5
609.325	700.5
609.417	785.5
609.509	882.5
609.601	866.5
609.693	820.5
609.784	750.5
609.876	740.5
609.968	782.5
610.06	2829.5
610.152	944.5
610.244	991.5
610.335	790.5
610.427	783.5
610.519	762.5
610.611	766.5
610.702	762.5
610.794	750.5
610.886	799.5
610.978	800.5
611.069	1239.5
611.161	764.5
611.253	818.5
611.344	678.5
611.436	604.5
611.528	744.5
611.62	713.5
611.711	698.5
611.803	625.5
611.894	668.5
611.986	650.5
612.078	621.5
612.169	709.5
612.261	622.5
612.352	594.5
612.444	585.5
612.536	686.5
612.627	578.5
612.719	564.5
612.81	534.5
612.902	516.5
612.993	556.5
613.085	594.5
613.176	434.5
613.268	483.5
613.359	516.5
613.451	526.5
613.542	483.5
613.634	506.5
613.725	544.5
613.816	540.5
613.908	479.5
613.999	517.5
614.091	380.5
614.182	362.5
614.273	506.5
614.365	388.5
614.456	366.5
614.547	418.5
614.639	315.5
614.73	346.5
614.821	492.5
614.913	329.5
615.004	282.5
615.095	315.5
615.187	299.5
