Data from 14g_HRC06701__37__220.txt Node

Date: Thu Apr 18 01:58:31 CDT 2024
User: Estudiantes 2
Spectrometer: HR+C0670
Trigger mode: 4
Integration Time (sec): 1.000000E0
Scans to average: 1
Electric dark correction enabled: true
Nonlinearity correction enabled: false
Boxcar width: 0
XAxis mode: Wavelengths
Number of Pixels in Spectrum: 2048
>>>>>Begin Spectral Data<<<<<
407.81	-124.38
407.921	-124.38
408.032	-124.38
408.143	-140.38
408.254	-122.38
408.365	55.62
408.476	243.62
408.587	-44.38
408.699	7.62
408.81	-19.38
408.921	-53.38
409.032	-29.38
409.143	50.62
409.254	19.62
409.365	113.62
409.476	13.62
409.587	-38.38
409.698	67.62
409.809	119.62
409.92	-39.38
410.031	-21.38
410.142	85.62
410.253	-7.38
410.364	-12.38
410.475	230.62
410.585	1245.62
410.696	1406.62
410.807	1386.62
410.918	1373.62
411.029	1395.62
411.14	1363.62
411.251	1460.62
411.362	1420.62
411.472	1449.62
411.583	1441.62
411.694	1450.62
411.805	1405.62
411.916	1441.62
412.026	1505.62
412.137	1433.62
412.248	1398.62
412.359	1475.62
412.47	1381.62
412.58	1348.62
412.691	1504.62
412.802	1421.62
412.912	1372.62
413.023	1427.62
413.134	1385.62
413.245	1429.62
413.355	1340.62
413.466	1378.62
413.577	1309.62
413.687	1490.62
413.798	1322.62
413.909	1395.62
414.019	1428.62
414.13	1489.62
414.24	1352.62
414.351	1417.62
414.462	1643.62
414.572	1387.62
414.683	1420.62
414.793	1438.62
414.904	1761.62
415.014	1417.62
415.125	1358.62
415.235	1438.62
415.346	1517.62
415.456	1518.62
415.567	1417.62
415.677	1445.62
415.788	1420.62
415.898	1396.62
416.009	1335.62
416.119	1381.62
416.23	1435.62
416.34	1350.62
416.45	1358.62
416.561	2143.62
416.671	1534.62
416.782	1316.62
416.892	1425.62
417.002	1478.62
417.113	1461.62
417.223	1422.62
417.333	1433.62
417.444	1415.62
417.554	1509.62
417.664	1525.62
417.775	1358.62
417.885	1408.62
417.995	1497.62
418.106	1645.62
418.216	1535.62
418.326	1531.62
418.436	1576.62
418.547	1538.62
418.657	1532.62
418.767	1693.62
418.877	1540.62
418.987	1576.62
419.098	1654.62
419.208	1595.62
419.318	1642.62
419.428	1652.62
419.538	1574.62
419.648	1579.62
419.759	1588.62
419.869	1731.62
419.979	1611.62
420.089	1562.62
420.199	1587.62
420.309	1620.62
420.419	1678.62
420.529	1635.62
420.639	2069.62
420.749	1690.62
420.859	1758.62
420.969	1706.62
421.079	1819.62
421.189	1650.62
421.299	1704.62
421.409	1593.62
421.519	1721.62
421.629	1794.62
421.739	1618.62
421.849	1661.62
421.959	1696.62
422.069	1695.62
422.179	1650.62
422.289	1717.62
422.399	1791.62
422.509	1795.62
422.619	4249.62
422.729	2045.62
422.838	1725.62
422.948	1777.62
423.058	1796.62
423.168	1762.62
423.278	1840.62
423.388	1900.62
423.498	1946.62
423.607	1876.62
423.717	2133.62
423.827	2223.62
423.937	1935.62
424.046	1978.62
424.156	2069.62
424.266	1944.62
424.376	2223.62
424.485	2075.62
424.595	1972.62
424.705	1950.62
424.815	2038.62
424.924	2427.62
425.034	2113.62
425.144	1976.62
425.253	2075.62
425.363	2012.62
425.473	2100.62
425.582	2011.62
425.692	2022.62
425.801	1976.62
425.911	2225.62
426.021	2088.62
426.13	2270.62
426.24	2367.62
426.349	2212.62
426.459	2109.62
426.568	2085.62
426.678	2257.62
426.787	2143.62
426.897	2072.62
427.006	2234.62
427.116	2160.62
427.225	2178.62
427.335	2354.62
427.444	2192.62
427.554	2225.62
427.663	2273.62
427.773	2249.62
427.882	2288.62
427.992	2268.62
428.101	2301.62
428.21	2229.62
428.32	2413.62
428.429	2304.62
428.539	2541.62
428.648	2338.62
428.757	2384.62
428.867	2398.62
428.976	2511.62
429.085	2468.62
429.195	2314.62
429.304	2371.62
429.413	2465.62
429.523	2478.62
429.632	2497.62
429.741	2429.62
429.85	2398.62
429.96	2480.62
430.069	2458.62
430.178	2499.62
430.287	2741.62
430.397	2404.62
430.506	2577.62
430.615	2479.62
430.724	2557.62
430.833	2593.62
430.943	2570.62
431.052	2558.62
431.161	2528.62
431.27	2622.62
431.379	2590.62
431.488	2807.62
431.597	2842.62
431.706	2676.62
431.816	2713.62
431.925	2772.62
432.034	2645.62
432.143	2761.62
432.252	2680.62
432.361	2764.62
432.47	2681.62
432.579	2723.62
432.688	2622.62
432.797	2641.62
432.906	2604.62
433.015	2726.62
433.124	3041.62
433.233	2768.62
433.342	2786.62
433.451	2664.62
433.56	2753.62
433.669	2782.62
433.778	2673.62
433.886	2723.62
433.995	2765.62
434.104	2918.62
434.213	2783.62
434.322	2829.62
434.431	3012.62
434.54	2989.62
434.649	3144.62
434.757	3056.62
434.866	3010.62
434.975	3018.62
435.084	3012.62
435.193	2895.62
435.301	3026.62
435.41	3120.62
435.519	3254.62
435.628	2696.62
435.737	2617.62
435.845	2591.62
435.954	2521.62
436.063	2580.62
436.171	2565.62
436.28	2554.62
436.389	2685.62
436.498	2603.62
436.606	2593.62
436.715	2676.62
436.823	2472.62
436.932	2474.62
437.041	2419.62
437.149	2456.62
437.258	2454.62
437.367	2397.62
437.475	2321.62
437.584	2730.62
437.692	2447.62
437.801	3829.62
437.91	2507.62
438.018	2307.62
438.127	2326.62
438.235	2486.62
438.344	2374.62
438.452	2302.62
438.561	2280.62
438.669	2367.62
438.778	2301.62
438.886	2313.62
438.995	2219.62
439.103	2273.62
439.212	2284.62
439.32	2332.62
439.428	2307.62
439.537	2305.62
439.645	2405.62
439.754	2375.62
439.862	2329.62
439.97	2327.62
440.079	2422.62
440.187	2230.62
440.295	2422.62
440.404	2385.62
440.512	2406.62
440.62	2409.62
440.729	2498.62
440.837	2425.62
440.945	3065.62
441.054	2608.62
441.162	2508.62
441.27	2637.62
441.378	2539.62
441.487	2608.62
441.595	2973.62
441.703	2715.62
441.811	2628.62
441.92	2505.62
442.028	2462.62
442.136	2529.62
442.244	2588.62
442.352	2500.62
442.461	2445.62
442.569	2413.62
442.677	2422.62
442.785	2535.62
442.893	2448.62
443.001	2404.62
443.109	2377.62
443.217	2472.62
443.325	2408.62
443.434	2991.62
443.542	2791.62
443.65	2514.62
443.758	2612.62
443.866	2637.62
443.974	2862.62
444.082	2665.62
444.19	2683.62
444.298	2740.62
444.406	2858.62
444.514	2939.62
444.622	2997.62
444.73	2918.62
444.838	2841.62
444.946	2921.62
445.054	2698.62
445.161	2642.62
445.269	2549.62
445.377	2650.62
445.485	2681.62
445.593	2581.62
445.701	2745.62
445.809	2625.62
445.917	2554.62
446.025	2590.62
446.132	2633.62
446.24	2560.62
446.348	2540.62
446.456	2513.62
446.564	2400.62
446.671	2525.62
446.779	2475.62
446.887	2433.62
446.995	2444.62
447.102	2597.62
447.21	2509.62
447.318	2530.62
447.426	2461.62
447.533	2641.62
447.641	3684.62
447.749	2636.62
447.856	2474.62
447.964	2445.62
448.072	2515.62
448.179	2446.62
448.287	2534.62
448.395	2429.62
448.502	2387.62
448.61	2429.62
448.718	2495.62
448.825	2618.62
448.933	2458.62
449.04	2493.62
449.148	2523.62
449.256	2463.62
449.363	2482.62
449.471	2657.62
449.578	2645.62
449.686	2470.62
449.793	2717.62
449.901	2662.62
450.008	2645.62
450.116	2665.62
450.223	2633.62
450.331	2712.62
450.438	2738.62
450.546	2738.62
450.653	2849.62
450.76	2844.62
450.868	2860.62
450.975	3059.62
451.083	2783.62
451.19	2930.62
451.297	2923.62
451.405	2849.62
451.512	2861.62
451.619	3097.62
451.727	3042.62
451.834	2841.62
451.941	2998.62
452.049	2930.62
452.156	2905.62
452.263	2985.62
452.371	2964.62
452.478	2938.62
452.585	3050.62
452.692	2923.62
452.8	3072.62
452.907	3151.62
453.014	3090.62
453.121	3036.62
453.229	3031.62
453.336	3161.62
453.443	3153.62
453.55	3031.62
453.657	3150.62
453.765	3131.62
453.872	3038.62
453.979	3202.62
454.086	3244.62
454.193	3164.62
454.3	3195.62
454.407	3329.62
454.514	3261.62
454.621	3112.62
454.729	3190.62
454.836	3177.62
454.943	3227.62
455.05	3309.62
455.157	3268.62
455.264	3198.62
455.371	3294.62
455.478	3310.62
455.585	3532.62
455.692	3314.62
455.799	3504.62
455.906	3328.62
456.013	3321.62
456.12	3352.62
456.227	3355.62
456.334	3358.62
456.44	3476.62
456.547	3450.62
456.654	3321.62
456.761	3425.62
456.868	3519.62
456.975	3548.62
457.082	3429.62
457.189	3373.62
457.296	3361.62
457.402	3497.62
457.509	3516.62
457.616	3521.62
457.723	3749.62
457.83	3626.62
457.936	3582.62
458.043	3921.62
458.15	3656.62
458.257	3775.62
458.363	3754.62
458.47	3811.62
458.577	3966.62
458.684	3849.62
458.79	4071.62
458.897	4129.62
459.004	4112.62
459.11	4089.62
459.217	4217.62
459.324	4215.62
459.43	4290.62
459.537	4513.62
459.644	4434.62
459.75	4287.62
459.857	4763.62
459.964	4601.62
460.07	4449.62
460.177	4587.62
460.283	4702.62
460.39	4753.62
460.496	4533.62
460.603	4662.62
460.71	4620.62
460.816	4549.62
460.923	4560.62
461.029	4562.62
461.136	4624.62
461.242	4531.62
461.349	4605.62
461.455	4593.62
461.562	4890.62
461.668	4790.62
461.774	4629.62
461.881	4784.62
461.987	4778.62
462.094	4751.62
462.2	4861.62
462.307	4993.62
462.413	4901.62
462.519	4977.62
462.626	5382.62
462.732	5372.62
462.838	5553.62
462.945	5692.62
463.051	5679.62
463.157	5665.62
463.264	5385.62
463.37	5455.62
463.476	5262.62
463.583	5099.62
463.689	5097.62
463.795	5178.62
463.901	5230.62
464.008	5244.62
464.114	5224.62
464.22	5118.62
464.326	5110.62
464.433	4870.62
464.539	4815.62
464.645	4762.62
464.751	4846.62
464.857	4640.62
464.963	4447.62
465.07	4450.62
465.176	4262.62
465.282	4126.62
465.388	4188.62
465.494	3932.62
465.6	3826.62
465.706	3752.62
465.812	3746.62
465.918	3757.62
466.024	3699.62
466.131	3613.62
466.237	3612.62
466.343	3401.62
466.449	3401.62
466.555	3422.62
466.661	3270.62
466.767	3350.62
466.873	3343.62
466.979	3446.62
467.085	3265.62
467.191	3346.62
467.296	3188.62
467.402	3173.62
467.508	3283.62
467.614	3320.62
467.72	3165.62
467.826	3148.62
467.932	3155.62
468.038	3037.62
468.144	3053.62
468.25	3059.62
468.355	2894.62
468.461	3040.62
468.567	2976.62
468.673	2968.62
468.779	2936.62
468.885	2958.62
468.99	2949.62
469.096	2981.62
469.202	3090.62
469.308	2997.62
469.413	3107.62
469.519	2961.62
469.625	3037.62
469.731	3077.62
469.836	3009.62
469.942	3255.62
470.048	3103.62
470.153	3068.62
470.259	3105.62
470.365	3148.62
470.47	3154.62
470.576	3087.62
470.682	3070.62
470.787	2981.62
470.893	2867.62
470.999	3073.62
471.104	2886.62
471.21	2790.62
471.315	2735.62
471.421	2817.62
471.527	2952.62
471.632	2873.62
471.738	2753.62
471.843	2640.62
471.949	2737.62
472.054	2748.62
472.16	2605.62
472.265	2601.62
472.371	2674.62
472.476	2626.62
472.582	2745.62
472.687	2617.62
472.793	2526.62
472.898	2517.62
473.003	2551.62
473.109	2479.62
473.214	2429.62
473.32	2557.62
473.425	2613.62
473.53	2551.62
473.636	2461.62
473.741	2557.62
473.847	2451.62
473.952	2495.62
474.057	2627.62
474.163	2518.62
474.268	2494.62
474.373	2624.62
474.478	2454.62
474.584	2450.62
474.689	2555.62
474.794	2495.62
474.9	2729.62
475.005	2542.62
475.11	2696.62
475.215	2446.62
475.321	2475.62
475.426	2737.62
475.531	2569.62
475.636	2460.62
475.741	2505.62
475.846	2660.62
475.952	2693.62
476.057	2604.62
476.162	2698.62
476.267	2657.62
476.372	2894.62
476.477	2611.62
476.582	2724.62
476.687	2587.62
476.793	2644.62
476.898	2592.62
477.003	2554.62
477.108	2612.62
477.213	2546.62
477.318	2643.62
477.423	2763.62
477.528	2751.62
477.633	2795.62
477.738	2778.62
477.843	2782.62
477.948	2790.62
478.053	2845.62
478.158	2898.62
478.263	2927.62
478.368	2845.62
478.473	3008.62
478.578	2940.62
478.682	2796.62
478.787	3006.62
478.892	2967.62
478.997	3037.62
479.102	2971.62
479.207	2967.62
479.312	3046.62
479.417	3041.62
479.521	3005.62
479.626	3165.62
479.731	3077.62
479.836	3116.62
479.941	3194.62
480.045	3296.62
480.15	3249.62
480.255	3231.62
480.36	3211.62
480.465	3199.62
480.569	3377.62
480.674	3191.62
480.779	3049.62
480.883	3144.62
480.988	3161.62
481.093	3103.62
481.197	3174.62
481.302	3085.62
481.407	3152.62
481.511	4338.62
481.616	3168.62
481.721	3052.62
481.825	3302.62
481.93	3072.62
482.035	3026.62
482.139	3164.62
482.244	3150.62
482.348	3114.62
482.453	3184.62
482.557	3236.62
482.662	3205.62
482.767	3064.62
482.871	3173.62
482.976	3240.62
483.08	3247.62
483.185	3439.62
483.289	3261.62
483.394	3245.62
483.498	3355.62
483.603	3284.62
483.707	3295.62
483.811	3402.62
483.916	3491.62
484.02	3429.62
484.125	3458.62
484.229	3498.62
484.333	3507.62
484.438	3433.62
484.542	3503.62
484.647	3560.62
484.751	3582.62
484.855	3559.62
484.96	3612.62
485.064	3586.62
485.168	3726.62
485.273	3652.62
485.377	3645.62
485.481	3839.62
485.585	3752.62
485.69	3700.62
485.794	3774.62
485.898	3817.62
486.002	3855.62
486.107	3732.62
486.211	3749.62
486.315	3909.62
486.419	3840.62
486.524	3803.62
486.628	3841.62
486.732	3786.62
486.836	3786.62
486.94	3926.62
487.044	3837.62
487.148	3823.62
487.253	3798.62
487.357	3854.62
487.461	3934.62
487.565	3804.62
487.669	3890.62
487.773	3782.62
487.877	3945.62
487.981	3948.62
488.085	3853.62
488.189	3883.62
488.293	4003.62
488.397	4317.62
488.501	3884.62
488.605	3931.62
488.709	3900.62
488.813	3862.62
488.917	3832.62
489.021	3970.62
489.125	4131.62
489.229	3828.62
489.333	4117.62
489.437	4032.62
489.541	3949.62
489.645	3969.62
489.749	3983.62
489.853	3990.62
489.956	3876.62
490.06	3965.62
490.164	3903.62
490.268	3871.62
490.372	4088.62
490.476	3904.62
490.579	4004.62
490.683	4687.62
490.787	4101.62
490.891	4013.62
490.995	4094.62
491.098	4091.62
491.202	3983.62
491.306	4112.62
491.41	4004.62
491.513	3911.62
491.617	3967.62
491.721	4117.62
491.824	4252.62
491.928	3993.62
492.032	4300.62
492.136	3954.62
492.239	3905.62
492.343	4040.62
492.446	4316.62
492.55	4072.62
492.654	3977.62
492.757	3909.62
492.861	3969.62
492.965	3956.62
493.068	4073.62
493.172	3980.62
493.275	3958.62
493.379	4011.62
493.482	4162.62
493.586	4084.62
493.689	4254.62
493.793	4067.62
493.896	4173.62
494	4102.62
494.103	4100.62
494.207	4394.62
494.31	4366.62
494.414	4105.62
494.517	4014.62
494.621	3972.62
494.724	4066.62
494.828	3933.62
494.931	3927.62
495.034	3965.62
495.138	4079.62
495.241	3852.62
495.345	4752.62
495.448	4058.62
495.551	3933.62
495.655	3916.62
495.758	3935.62
495.861	3872.62
495.965	3942.62
496.068	3974.62
496.171	4005.62
496.274	3980.62
496.378	4026.62
496.481	4030.62
496.584	4014.62
496.687	3985.62
496.791	4074.62
496.894	4050.62
496.997	4080.62
497.1	4092.62
497.204	4165.62
497.307	4092.62
497.41	4320.62
497.513	4368.62
497.616	4116.62
497.719	4229.62
497.823	4359.62
497.926	4321.62
498.029	4350.62
498.132	4447.62
498.235	4512.62
498.338	4601.62
498.441	4749.62
498.544	4695.62
498.647	4878.62
498.75	5222.62
498.853	5318.62
498.956	5348.62
499.059	5730.62
499.163	5587.62
499.266	5861.62
499.369	6094.62
499.471	6181.62
499.574	6589.62
499.677	6761.62
499.78	7077.62
499.883	7386.62
499.986	7892.62
500.089	8092.62
500.192	8315.62
500.295	8330.62
500.398	8367.62
500.501	8145.62
500.604	7909.62
500.707	7528.62
500.809	7390.62
500.912	7099.62
501.015	6800.62
501.118	6470.62
501.221	6242.62
501.324	5856.62
501.426	5763.62
501.529	5458.62
501.632	5257.62
501.735	5058.62
501.837	4903.62
501.94	4685.62
502.043	4611.62
502.146	4539.62
502.248	4470.62
502.351	4416.62
502.454	4306.62
502.557	4162.62
502.659	4144.62
502.762	4028.62
502.865	3891.62
502.967	3839.62
503.07	3876.62
503.173	3778.62
503.275	3646.62
503.378	3693.62
503.48	3564.62
503.583	3725.62
503.686	3612.62
503.788	3829.62
503.891	3644.62
503.993	3770.62
504.096	3575.62
504.198	3640.62
504.301	3515.62
504.403	3701.62
504.506	3606.62
504.608	3497.62
504.711	3406.62
504.813	3410.62
504.916	3364.62
505.018	3227.62
505.121	3171.62
505.223	3162.62
505.326	3050.62
505.428	3140.62
505.531	3047.62
505.633	3010.62
505.735	3038.62
505.838	2967.62
505.94	2942.62
506.042	2849.62
506.145	2925.62
506.247	2996.62
506.35	2866.62
506.452	2935.62
506.554	2893.62
506.656	2867.62
506.759	2880.62
506.861	2805.62
506.963	2782.62
507.066	2871.62
507.168	2891.62
507.27	2714.62
507.372	2742.62
507.475	2764.62
507.577	2739.62
507.679	2746.62
507.781	2691.62
507.883	2745.62
507.986	2726.62
508.088	2730.62
508.19	2685.62
508.292	2699.62
508.394	2659.62
508.496	2575.62
508.598	2569.62
508.701	2683.62
508.803	2693.62
508.905	2629.62
509.007	2680.62
509.109	2672.62
509.211	2618.62
509.313	2615.62
509.415	2532.62
509.517	2581.62
509.619	2603.62
509.721	2642.62
509.823	2518.62
509.925	2776.62
510.027	2605.62
510.129	2533.62
510.231	2548.62
510.333	2530.62
510.435	2469.62
510.537	2609.62
510.639	2599.62
510.741	2581.62
510.843	2541.62
510.945	2555.62
511.047	2655.62
511.148	2585.62
511.25	2515.62
511.352	2584.62
511.454	2469.62
511.556	2576.62
511.658	2537.62
511.76	2652.62
511.861	2720.62
511.963	2497.62
512.065	2532.62
512.167	2552.62
512.268	2740.62
512.37	2655.62
512.472	2544.62
512.574	2651.62
512.676	2703.62
512.777	2502.62
512.879	2486.62
512.981	2572.62
513.082	2568.62
513.184	2649.62
513.286	3004.62
513.387	2745.62
513.489	2716.62
513.591	2638.62
513.692	2743.62
513.794	2675.62
513.896	2568.62
513.997	2590.62
514.099	2572.62
514.2	2676.62
514.302	2632.62
514.404	2706.62
514.505	2604.62
514.607	2780.62
514.708	2674.62
514.81	2702.62
514.911	2778.62
515.013	2882.62
515.114	2724.62
515.216	2727.62
515.317	2915.62
515.419	2785.62
515.52	2829.62
515.622	2857.62
515.723	2928.62
515.825	2963.62
515.926	2993.62
516.027	2892.62
516.129	2894.62
516.23	2974.62
516.332	3114.62
516.433	3073.62
516.534	3137.62
516.636	3172.62
516.737	3209.62
516.838	4305.62
516.94	3550.62
517.041	3374.62
517.142	3438.62
517.244	3612.62
517.345	3662.62
517.446	3694.62
517.547	3717.62
517.649	3647.62
517.75	3648.62
517.851	3540.62
517.952	3845.62
518.054	3610.62
518.155	3670.62
518.256	3493.62
518.357	3589.62
518.458	3343.62
518.56	3380.62
518.661	3386.62
518.762	3334.62
518.863	3397.62
518.964	3356.62
519.065	3124.62
519.166	3211.62
519.268	3188.62
519.369	3360.62
519.47	3127.62
519.571	3179.62
519.672	3113.62
519.773	3036.62
519.874	3130.62
519.975	3086.62
520.076	2971.62
520.177	3138.62
520.278	3060.62
520.379	3096.62
520.48	2965.62
520.581	2976.62
520.682	2983.62
520.783	2981.62
520.884	3043.62
520.985	2985.62
521.086	2926.62
521.187	2981.62
521.288	2936.62
521.389	3012.62
521.489	2851.62
521.59	2941.62
521.691	2990.62
521.792	2937.62
521.893	3124.62
521.994	3094.62
522.095	2978.62
522.195	3059.62
522.296	3090.62
522.397	3036.62
522.498	2995.62
522.599	2917.62
522.699	2972.62
522.8	3010.62
522.901	3164.62
523.002	2977.62
523.102	3272.62
523.203	3059.62
523.304	3126.62
523.405	3034.62
523.505	3055.62
523.606	3161.62
523.707	3091.62
523.807	3148.62
523.908	3135.62
524.009	3163.62
524.109	3106.62
524.21	3059.62
524.31	3196.62
524.411	3198.62
524.512	3302.62
524.612	3153.62
524.713	3292.62
524.813	3196.62
524.914	3385.62
525.014	7304.62
525.115	3459.62
525.216	3067.62
525.316	3053.62
525.417	3147.62
525.517	3102.62
525.618	3047.62
525.718	3017.62
525.819	3080.62
525.919	3021.62
526.019	2987.62
526.12	3154.62
526.22	2924.62
526.321	2885.62
526.421	2878.62
526.522	2932.62
526.622	2896.62
526.722	2913.62
526.823	2985.62
526.923	2974.62
527.023	3013.62
527.124	2963.62
527.224	3065.62
527.324	2915.62
527.425	3006.62
527.525	2836.62
527.625	2900.62
527.726	2965.62
527.826	3108.62
527.926	2969.62
528.026	3064.62
528.127	3112.62
528.227	3001.62
528.327	3122.62
528.427	3119.62
528.528	3125.62
528.628	3146.62
528.728	3166.62
528.828	3107.62
528.928	3209.62
529.029	3154.62
529.129	3148.62
529.229	3106.62
529.329	3103.62
529.429	3166.62
529.529	3169.62
529.629	3057.62
529.729	3054.62
529.829	3106.62
529.93	2905.62
530.03	3060.62
530.13	2941.62
530.23	2908.62
530.33	3036.62
530.43	2899.62
530.53	2886.62
530.63	2895.62
530.73	2815.62
530.83	2771.62
530.93	2794.62
531.03	2804.62
531.13	2890.62
531.23	2722.62
531.33	2870.62
531.429	2849.62
531.529	2845.62
531.629	2812.62
531.729	2780.62
531.829	2812.62
531.929	2837.62
532.029	2825.62
532.129	2854.62
532.229	2906.62
532.328	2815.62
532.428	2708.62
532.528	2682.62
532.628	2777.62
532.728	2788.62
532.827	2718.62
532.927	2896.62
533.027	2835.62
533.127	2955.62
533.227	2892.62
533.326	2908.62
533.426	2800.62
533.526	2977.62
533.625	3021.62
533.725	2973.62
533.825	2817.62
533.924	2744.62
534.024	2481.62
534.124	2619.62
534.223	2754.62
534.323	3011.62
534.423	2673.62
534.522	2722.62
534.622	2588.62
534.722	2629.62
534.821	2641.62
534.921	2631.62
535.02	2532.62
535.12	2672.62
535.219	2779.62
535.319	2663.62
535.419	2665.62
535.518	2658.62
535.618	2639.62
535.717	2644.62
535.817	2509.62
535.916	2399.62
536.016	2537.62
536.115	2403.62
536.215	2471.62
536.314	2400.62
536.413	2348.62
536.513	2398.62
536.612	2436.62
536.712	2331.62
536.811	2407.62
536.91	2338.62
537.01	2259.62
537.109	2355.62
537.209	2381.62
537.308	2300.62
537.407	2418.62
537.507	2433.62
537.606	2364.62
537.705	2394.62
537.805	2392.62
537.904	2209.62
538.003	2317.62
538.102	2489.62
538.202	2341.62
538.301	2515.62
538.4	2462.62
538.499	2460.62
538.599	2516.62
538.698	2661.62
538.797	2533.62
538.896	2465.62
538.995	2446.62
539.095	2433.62
539.194	2558.62
539.293	2353.62
539.392	2373.62
539.491	2314.62
539.59	2271.62
539.689	2427.62
539.789	2412.62
539.888	2158.62
539.987	2166.62
540.086	2276.62
540.185	2271.62
540.284	2377.62
540.383	2372.62
540.482	2257.62
540.581	2379.62
540.68	2428.62
540.779	2428.62
540.878	2355.62
540.977	2524.62
541.076	2395.62
541.175	2387.62
541.274	2688.62
541.373	2483.62
541.472	2412.62
541.571	2402.62
541.67	3744.62
541.769	2481.62
541.868	2396.62
541.966	2548.62
542.065	2386.62
542.164	2349.62
542.263	2356.62
542.362	2404.62
542.461	2411.62
542.56	2377.62
542.658	2433.62
542.757	2257.62
542.856	2202.62
542.955	2224.62
543.054	2170.62
543.152	2374.62
543.251	2295.62
543.35	2343.62
543.449	2231.62
543.547	2313.62
543.646	2298.62
543.745	2372.62
543.843	2387.62
543.942	2389.62
544.041	2305.62
544.14	2397.62
544.238	2384.62
544.337	2548.62
544.436	2434.62
544.534	2591.62
544.633	2455.62
544.731	2425.62
544.83	2513.62
544.929	2430.62
545.027	2369.62
545.126	2469.62
545.224	2471.62
545.323	2379.62
545.421	2438.62
545.52	2522.62
545.619	2412.62
545.717	2390.62
545.816	2568.62
545.914	2492.62
546.013	2670.62
546.111	2590.62
546.209	2415.62
546.308	2413.62
546.406	2461.62
546.505	2652.62
546.603	2400.62
546.702	2350.62
546.8	2471.62
546.899	2364.62
546.997	2446.62
547.095	2456.62
547.194	2438.62
547.292	2462.62
547.39	2533.62
547.489	2432.62
547.587	2654.62
547.685	2353.62
547.784	2692.62
547.882	2451.62
547.98	2350.62
548.079	2490.62
548.177	2317.62
548.275	2335.62
548.373	2544.62
548.472	2414.62
548.57	2370.62
548.668	2577.62
548.766	2449.62
548.864	2481.62
548.963	2416.62
549.061	2583.62
549.159	2421.62
549.257	2509.62
549.355	2440.62
549.454	2462.62
549.552	2482.62
549.65	2479.62
549.748	2380.62
549.846	2409.62
549.944	2432.62
550.042	2349.62
550.14	2372.62
550.238	2423.62
550.336	2388.62
550.434	2303.62
550.532	2353.62
550.631	2453.62
550.729	2401.62
550.827	2417.62
550.925	2372.62
551.023	2266.62
551.121	2303.62
551.218	2321.62
551.316	2167.62
551.414	2167.62
551.512	2155.62
551.61	2244.62
551.708	2240.62
551.806	2300.62
551.904	2290.62
552.002	2293.62
552.1	2304.62
552.198	2390.62
552.296	2497.62
552.393	2565.62
552.491	2663.62
552.589	2563.62
552.687	2566.62
552.785	2528.62
552.882	2740.62
552.98	2737.62
553.078	2684.62
553.176	2788.62
553.274	2504.62
553.371	2499.62
553.469	2601.62
553.567	2526.62
553.665	2577.62
553.762	2969.62
553.86	2609.62
553.958	2546.62
554.055	2547.62
554.153	2604.62
554.251	2436.62
554.348	2457.62
554.446	2457.62
554.544	2342.62
554.641	2719.62
554.739	2444.62
554.837	2426.62
554.934	2377.62
555.032	2364.62
555.129	2266.62
555.227	2580.62
555.324	6249.62
555.422	2598.62
555.519	2269.62
555.617	2294.62
555.715	2212.62
555.812	2642.62
555.91	2174.62
556.007	2262.62
556.105	2205.62
556.202	2194.62
556.299	2162.62
556.397	2150.62
556.494	2165.62
556.592	2220.62
556.689	2291.62
556.787	2126.62
556.884	2177.62
556.981	2222.62
557.079	2137.62
557.176	2207.62
557.273	2308.62
557.371	2290.62
557.468	2207.62
557.566	2302.62
557.663	2195.62
557.76	2242.62
557.857	2230.62
557.955	2219.62
558.052	2261.62
558.149	2340.62
558.247	2422.62
558.344	2142.62
558.441	2091.62
558.538	2253.62
558.636	2176.62
558.733	2214.62
558.83	2252.62
558.927	2206.62
559.024	2210.62
559.122	2122.62
559.219	2149.62
559.316	2258.62
559.413	2308.62
559.51	2158.62
559.607	2129.62
559.704	2193.62
559.801	2324.62
559.899	2151.62
559.996	2451.62
560.093	2313.62
560.19	2119.62
560.287	2253.62
560.384	2389.62
560.481	2223.62
560.578	2186.62
560.675	2157.62
560.772	2280.62
560.869	2189.62
560.966	2344.62
561.063	2254.62
561.16	2277.62
561.257	2250.62
561.354	2254.62
561.451	2174.62
561.548	2223.62
561.645	2388.62
561.742	2152.62
561.838	2202.62
561.935	2278.62
562.032	2258.62
562.129	2241.62
562.226	2226.62
562.323	2234.62
562.42	2236.62
562.516	2210.62
562.613	2293.62
562.71	2291.62
562.807	2949.62
562.904	2218.62
563	2257.62
563.097	2255.62
563.194	2249.62
563.291	2236.62
563.387	2122.62
563.484	2266.62
563.581	2277.62
563.678	2233.62
563.774	2644.62
563.871	2355.62
563.968	2302.62
564.064	2335.62
564.161	2262.62
564.258	2355.62
564.354	2401.62
564.451	2393.62
564.548	2415.62
564.644	2361.62
564.741	2304.62
564.837	2323.62
564.934	2341.62
565.031	2386.62
565.127	2480.62
565.224	2458.62
565.32	2591.62
565.417	2537.62
565.513	2604.62
565.61	2555.62
565.706	2689.62
565.803	2753.62
565.899	2743.62
565.996	2801.62
566.092	2918.62
566.189	2900.62
566.285	2950.62
566.382	3036.62
566.478	3158.62
566.574	3169.62
566.671	3234.62
566.767	3133.62
566.864	3183.62
566.96	3230.62
567.056	3204.62
567.153	3508.62
567.249	3434.62
567.345	3441.62
567.442	3527.62
567.538	3587.62
567.634	3605.62
567.731	3517.62
567.827	3569.62
567.923	3578.62
568.019	3307.62
568.116	3187.62
568.212	3071.62
568.308	3102.62
568.404	2918.62
568.501	2796.62
568.597	2778.62
568.693	2577.62
568.789	3161.62
568.885	2597.62
568.982	2428.62
569.078	2279.62
569.174	2369.62
569.27	2193.62
569.366	2275.62
569.462	2267.62
569.558	2103.62
569.655	2149.62
569.751	2136.62
569.847	2116.62
569.943	2044.62
570.039	1994.62
570.135	2559.62
570.231	2045.62
570.327	2198.62
570.423	2250.62
570.519	2142.62
570.615	2066.62
570.711	2260.62
570.807	2247.62
570.903	2122.62
570.999	2169.62
571.095	2297.62
571.191	2190.62
571.287	2186.62
571.383	2243.62
571.479	2099.62
571.574	2110.62
571.67	2033.62
571.766	2190.62
571.862	2009.62
571.958	1982.62
572.054	2040.62
572.15	1845.62
572.246	1863.62
572.341	1959.62
572.437	1835.62
572.533	1900.62
572.629	1868.62
572.725	1787.62
572.82	1765.62
572.916	1897.62
573.012	1711.62
573.108	1833.62
573.203	1717.62
573.299	1704.62
573.395	1631.62
573.49	1599.62
573.586	1698.62
573.682	1676.62
573.778	1819.62
573.873	1676.62
573.969	1649.62
574.065	1659.62
574.16	1735.62
574.256	1716.62
574.351	1785.62
574.447	1659.62
574.543	1758.62
574.638	1796.62
574.734	1757.62
574.829	1890.62
574.925	1689.62
575.02	1698.62
575.116	1706.62
575.212	1669.62
575.307	1787.62
575.403	1661.62
575.498	1694.62
575.594	1596.62
575.689	1705.62
575.784	1683.62
575.88	1646.62
575.975	1714.62
576.071	1660.62
576.166	1534.62
576.262	1603.62
576.357	1614.62
576.452	1752.62
576.548	1638.62
576.643	1624.62
576.739	1664.62
576.834	1599.62
576.929	1618.62
577.025	2238.62
577.12	1484.62
577.215	1511.62
577.311	1535.62
577.406	1615.62
577.501	1643.62
577.597	1463.62
577.692	1586.62
577.787	1629.62
577.882	1550.62
577.978	1487.62
578.073	1483.62
578.168	1447.62
578.263	1375.62
578.358	1403.62
578.454	1327.62
578.549	1371.62
578.644	1289.62
578.739	1388.62
578.834	1425.62
578.929	1289.62
579.025	1284.62
579.12	1461.62
579.215	1550.62
579.31	1494.62
579.405	1321.62
579.5	1446.62
579.595	1401.62
579.69	1238.62
579.785	1341.62
579.88	1268.62
579.975	1322.62
580.07	1337.62
580.165	1358.62
580.26	1364.62
580.355	1370.62
580.45	1334.62
580.545	1248.62
580.64	1378.62
580.735	1421.62
580.83	1317.62
580.925	1251.62
581.02	1318.62
581.115	1219.62
581.21	1142.62
581.305	1330.62
581.4	1260.62
581.495	1264.62
581.589	1319.62
581.684	1202.62
581.779	1344.62
581.874	1314.62
581.969	1354.62
582.064	1181.62
582.158	1236.62
582.253	1231.62
582.348	1230.62
582.443	1228.62
582.537	1301.62
582.632	1371.62
582.727	1217.62
582.822	1230.62
582.916	1173.62
583.011	1167.62
583.106	1271.62
583.201	1196.62
583.295	1152.62
583.39	1092.62
583.485	1157.62
583.579	2740.62
583.674	1327.62
583.769	1471.62
583.863	1106.62
583.958	1142.62
584.052	1085.62
584.147	1105.62
584.242	1079.62
584.336	1126.62
584.431	1295.62
584.525	1077.62
584.62	1290.62
584.714	1214.62
584.809	1157.62
584.903	1169.62
584.998	1246.62
585.092	1024.62
585.187	1146.62
585.281	1113.62
585.376	1129.62
585.47	1128.62
585.565	1166.62
585.659	1054.62
585.754	1046.62
585.848	1173.62
585.942	1070.62
586.037	1000.62
586.131	3277.62
586.226	1277.62
586.32	1092.62
586.414	1000.62
586.509	1165.62
586.603	1115.62
586.697	1022.62
586.792	1058.62
586.886	985.62
586.98	1191.62
587.075	1092.62
587.169	1090.62
587.263	1192.62
587.357	1106.62
587.452	1053.62
587.546	1172.62
587.64	974.62
587.734	1121.62
587.829	1115.62
587.923	1011.62
588.017	1078.62
588.111	1054.62
588.205	1099.62
588.3	1066.62
588.394	1028.62
588.488	1029.62
588.582	1130.62
588.676	1207.62
588.77	1428.62
588.864	2308.62
588.958	2604.62
589.052	2159.62
589.147	1614.62
589.241	1338.62
589.335	1308.62
589.429	1742.62
589.523	2162.62
589.617	1979.62
589.711	1546.62
589.805	1296.62
589.899	1279.62
589.993	1082.62
590.087	986.62
590.181	1030.62
590.275	1046.62
590.369	992.62
590.462	1022.62
590.556	947.62
590.65	953.62
590.744	1018.62
590.838	960.62
590.932	966.62
591.026	1033.62
591.12	1150.62
591.214	987.62
591.307	1054.62
591.401	1070.62
591.495	1043.62
591.589	1037.62
591.683	1086.62
591.777	1062.62
591.87	1403.62
591.964	1119.62
592.058	1016.62
592.152	1081.62
592.245	1070.62
592.339	1154.62
592.433	1158.62
592.527	1087.62
592.62	1064.62
592.714	1097.62
592.808	1142.62
592.901	1186.62
592.995	1077.62
593.089	1321.62
593.182	1183.62
593.276	1070.62
593.37	1022.62
593.463	1067.62
593.557	1110.62
593.65	1059.62
593.744	1068.62
593.837	1236.62
593.931	1102.62
594.025	4227.62
594.118	1453.62
594.212	1063.62
594.305	1054.62
594.399	1174.62
594.492	1401.62
594.586	1081.62
594.679	990.62
594.773	1051.62
594.866	1057.62
594.96	1046.62
595.053	998.62
595.146	966.62
595.24	941.62
595.333	967.62
595.427	886.62
595.52	876.62
595.614	1088.62
595.707	911.62
595.8	851.62
595.894	902.62
595.987	908.62
596.08	861.62
596.174	1280.62
596.267	1056.62
596.36	1006.62
596.454	1035.62
596.547	1018.62
596.64	825.62
596.733	812.62
596.827	948.62
596.92	823.62
597.013	736.62
597.106	768.62
597.2	799.62
597.293	762.62
597.386	975.62
597.479	942.62
597.572	847.62
597.666	751.62
597.759	761.62
597.852	873.62
597.945	771.62
598.038	750.62
598.131	734.62
598.224	749.62
598.317	868.62
598.411	807.62
598.504	720.62
598.597	794.62
598.69	823.62
598.783	737.62
598.876	758.62
598.969	873.62
599.062	752.62
599.155	843.62
599.248	819.62
599.341	819.62
599.434	708.62
599.527	802.62
599.62	816.62
599.713	747.62
599.806	810.62
599.899	953.62
599.991	738.62
600.084	979.62
600.177	781.62
600.27	746.62
600.363	928.62
600.456	783.62
600.549	781.62
600.642	685.62
600.734	768.62
600.827	783.62
600.92	853.62
601.013	786.62
601.106	931.62
601.199	760.62
601.291	762.62
601.384	814.62
601.477	954.62
601.57	903.62
601.662	788.62
601.755	809.62
601.848	798.62
601.94	786.62
602.033	924.62
602.126	800.62
602.219	779.62
602.311	924.62
602.404	739.62
602.497	756.62
602.589	796.62
602.682	827.62
602.774	824.62
602.867	806.62
602.96	767.62
603.052	748.62
603.145	797.62
603.237	769.62
603.33	768.62
603.422	893.62
603.515	768.62
603.608	728.62
603.7	763.62
603.793	809.62
603.885	762.62
603.978	652.62
604.07	780.62
604.163	722.62
604.255	721.62
604.347	721.62
604.44	678.62
604.532	698.62
604.625	755.62
604.717	725.62
604.81	752.62
604.902	725.62
604.994	736.62
605.087	668.62
605.179	692.62
605.271	784.62
605.364	738.62
605.456	817.62
605.548	737.62
605.641	746.62
605.733	758.62
605.825	776.62
605.918	712.62
606.01	900.62
606.102	1215.62
606.194	833.62
606.287	837.62
606.379	741.62
606.471	793.62
606.563	781.62
606.655	808.62
606.748	857.62
606.84	716.62
606.932	789.62
607.024	737.62
607.116	768.62
607.208	710.62
607.301	772.62
607.393	786.62
607.485	740.62
607.577	778.62
607.669	875.62
607.761	799.62
607.853	986.62
607.945	725.62
608.037	636.62
608.129	703.62
608.221	699.62
608.313	732.62
608.405	768.62
608.497	768.62
608.589	771.62
608.681	724.62
608.773	785.62
608.865	797.62
608.957	777.62
609.049	720.62
609.141	821.62
609.233	675.62
609.325	665.62
609.417	741.62
609.509	824.62
609.601	837.62
609.693	800.62
609.784	745.62
609.876	722.62
609.968	756.62
610.06	2851.62
610.152	961.62
610.244	978.62
610.335	804.62
610.427	719.62
610.519	685.62
610.611	742.62
610.702	697.62
610.794	732.62
610.886	775.62
610.978	748.62
611.069	1160.62
611.161	774.62
611.253	774.62
611.344	659.62
611.436	616.62
611.528	718.62
611.62	619.62
611.711	598.62
611.803	668.62
611.894	614.62
611.986	594.62
612.078	613.62
612.169	675.62
612.261	594.62
612.352	616.62
612.444	575.62
612.536	641.62
612.627	580.62
612.719	568.62
612.81	508.62
612.902	511.62
612.993	562.62
613.085	517.62
613.176	439.62
613.268	506.62
613.359	520.62
613.451	488.62
613.542	476.62
613.634	498.62
613.725	526.62
613.816	535.62
613.908	466.62
613.999	433.62
614.091	407.62
614.182	385.62
614.273	441.62
614.365	360.62
614.456	325.62
614.547	370.62
614.639	271.62
614.73	329.62
614.821	431.62
614.913	269.62
615.004	237.62
615.095	291.62
615.187	246.62
