Data from 14g_HRC06701__42__225.txt Node

Date: Thu Apr 18 01:58:36 CDT 2024
User: Estudiantes 2
Spectrometer: HR+C0670
Trigger mode: 4
Integration Time (sec): 1.000000E0
Scans to average: 1
Electric dark correction enabled: true
Nonlinearity correction enabled: false
Boxcar width: 0
XAxis mode: Wavelengths
Number of Pixels in Spectrum: 2048
>>>>>Begin Spectral Data<<<<<
407.81	-118.44
407.921	-118.44
408.032	-118.44
408.143	-96.44
408.254	-121.44
408.365	23.56
408.476	216.56
408.587	-1.44
408.699	-22.44
408.81	-21.44
408.921	-24.44
409.032	-69.44
409.143	24.56
409.254	39.56
409.365	91.56
409.476	-42.44
409.587	11.56
409.698	110.56
409.809	61.56
409.92	-42.44
410.031	6.56
410.142	43.56
410.253	0.56
410.364	72.56
410.475	300.56
410.585	1549.56
410.696	1785.56
410.807	1607.56
410.918	1669.56
411.029	1728.56
411.14	1723.56
411.251	1692.56
411.362	1744.56
411.472	1796.56
411.583	1689.56
411.694	1834.56
411.805	1858.56
411.916	1774.56
412.026	1785.56
412.137	1800.56
412.248	1730.56
412.359	1685.56
412.47	1718.56
412.58	1712.56
412.691	1770.56
412.802	1702.56
412.912	1760.56
413.023	1734.56
413.134	1644.56
413.245	1816.56
413.355	1674.56
413.466	1660.56
413.577	1747.56
413.687	1808.56
413.798	1596.56
413.909	1743.56
414.019	1735.56
414.13	1697.56
414.24	1724.56
414.351	1797.56
414.462	1845.56
414.572	1742.56
414.683	1806.56
414.793	1670.56
414.904	2004.56
415.014	1732.56
415.125	1627.56
415.235	1713.56
415.346	1823.56
415.456	1789.56
415.567	1640.56
415.677	1716.56
415.788	1803.56
415.898	1643.56
416.009	1630.56
416.119	1765.56
416.23	1652.56
416.34	1657.56
416.45	1829.56
416.561	2522.56
416.671	1832.56
416.782	1685.56
416.892	1720.56
417.002	1747.56
417.113	1815.56
417.223	1738.56
417.333	1698.56
417.444	1724.56
417.554	1858.56
417.664	1820.56
417.775	1736.56
417.885	1817.56
417.995	1824.56
418.106	1911.56
418.216	1905.56
418.326	1921.56
418.436	1909.56
418.547	1863.56
418.657	1893.56
418.767	1927.56
418.877	1917.56
418.987	1962.56
419.098	1953.56
419.208	1955.56
419.318	2075.56
419.428	1993.56
419.538	1876.56
419.648	1980.56
419.759	2010.56
419.869	1966.56
419.979	1944.56
420.089	2014.56
420.199	1899.56
420.309	1896.56
420.419	2044.56
420.529	1925.56
420.639	2472.56
420.749	2088.56
420.859	2022.56
420.969	1945.56
421.079	2245.56
421.189	2069.56
421.299	2016.56
421.409	1994.56
421.519	2100.56
421.629	2058.56
421.739	2021.56
421.849	2058.56
421.959	2005.56
422.069	2028.56
422.179	2061.56
422.289	2050.56
422.399	2080.56
422.509	2278.56
422.619	5486.56
422.729	2383.56
422.838	2127.56
422.948	2223.56
423.058	2235.56
423.168	2273.56
423.278	2304.56
423.388	2246.56
423.498	2314.56
423.607	2375.56
423.717	2580.56
423.827	2567.56
423.937	2385.56
424.046	2457.56
424.156	2399.56
424.266	2391.56
424.376	2622.56
424.485	2480.56
424.595	2395.56
424.705	2480.56
424.815	2444.56
424.924	2796.56
425.034	2423.56
425.144	2395.56
425.253	2445.56
425.363	2622.56
425.473	2568.56
425.582	2434.56
425.692	2523.56
425.801	2463.56
425.911	2645.56
426.021	2598.56
426.13	2698.56
426.24	2760.56
426.349	2674.56
426.459	2687.56
426.568	2559.56
426.678	2739.56
426.787	2658.56
426.897	2563.56
427.006	2648.56
427.116	2779.56
427.225	2685.56
427.335	2750.56
427.444	2640.56
427.554	2795.56
427.663	2713.56
427.773	2710.56
427.882	2835.56
427.992	2746.56
428.101	2789.56
428.21	2824.56
428.32	2836.56
428.429	2740.56
428.539	3100.56
428.648	2879.56
428.757	2880.56
428.867	2927.56
428.976	3144.56
429.085	2944.56
429.195	2907.56
429.304	3046.56
429.413	2978.56
429.523	3013.56
429.632	3009.56
429.741	2966.56
429.85	2894.56
429.96	3039.56
430.069	3007.56
430.178	2930.56
430.287	3355.56
430.397	3104.56
430.506	3071.56
430.615	3020.56
430.724	3175.56
430.833	3114.56
430.943	3088.56
431.052	3228.56
431.161	3193.56
431.27	3200.56
431.379	3160.56
431.488	3380.56
431.597	3264.56
431.706	3351.56
431.816	3371.56
431.925	3269.56
432.034	3368.56
432.143	3379.56
432.252	3253.56
432.361	3314.56
432.47	3291.56
432.579	3404.56
432.688	3313.56
432.797	3387.56
432.906	3328.56
433.015	3293.56
433.124	3700.56
433.233	3411.56
433.342	3394.56
433.451	3274.56
433.56	3342.56
433.669	3374.56
433.778	3294.56
433.886	3494.56
433.995	3358.56
434.104	3492.56
434.213	3465.56
434.322	3526.56
434.431	3631.56
434.54	3663.56
434.649	3836.56
434.757	3724.56
434.866	3633.56
434.975	3722.56
435.084	3631.56
435.193	3504.56
435.301	3783.56
435.41	3691.56
435.519	3847.56
435.628	3288.56
435.737	3279.56
435.845	3193.56
435.954	3070.56
436.063	3244.56
436.171	3153.56
436.28	3147.56
436.389	3366.56
436.498	3155.56
436.606	3156.56
436.715	3377.56
436.823	3107.56
436.932	2988.56
437.041	2991.56
437.149	3075.56
437.258	2957.56
437.367	2907.56
437.475	2903.56
437.584	3189.56
437.692	2932.56
437.801	4486.56
437.91	2982.56
438.018	2822.56
438.127	2867.56
438.235	2902.56
438.344	2889.56
438.452	2960.56
438.561	2823.56
438.669	2864.56
438.778	2791.56
438.886	2860.56
438.995	2768.56
439.103	2863.56
439.212	2840.56
439.32	2856.56
439.428	2722.56
439.537	2838.56
439.645	3003.56
439.754	2907.56
439.862	2887.56
439.97	2873.56
440.079	2865.56
440.187	2778.56
440.295	3085.56
440.404	2875.56
440.512	2924.56
440.62	3073.56
440.729	3060.56
440.837	3096.56
440.945	3694.56
441.054	3087.56
441.162	3083.56
441.27	3273.56
441.378	3190.56
441.487	3158.56
441.595	3608.56
441.703	3307.56
441.811	3129.56
441.92	3144.56
442.028	3030.56
442.136	3113.56
442.244	3182.56
442.352	3108.56
442.461	2932.56
442.569	2972.56
442.677	3011.56
442.785	3133.56
442.893	3011.56
443.001	3015.56
443.109	2982.56
443.217	2986.56
443.325	3008.56
443.434	3613.56
443.542	3265.56
443.65	3123.56
443.758	3318.56
443.866	3149.56
443.974	3459.56
444.082	3309.56
444.19	3333.56
444.298	3278.56
444.406	3569.56
444.514	3562.56
444.622	3545.56
444.73	3638.56
444.838	3517.56
444.946	3494.56
445.054	3303.56
445.161	3411.56
445.269	3131.56
445.377	3191.56
445.485	3236.56
445.593	3171.56
445.701	3285.56
445.809	3277.56
445.917	3202.56
446.025	3084.56
446.132	3243.56
446.24	3239.56
446.348	3067.56
446.456	2963.56
446.564	3073.56
446.671	3104.56
446.779	2999.56
446.887	3032.56
446.995	3062.56
447.102	3090.56
447.21	3127.56
447.318	3032.56
447.426	3006.56
447.533	3346.56
447.641	4307.56
447.749	3087.56
447.856	3031.56
447.964	3121.56
448.072	3138.56
448.179	3028.56
448.287	3118.56
448.395	3059.56
448.502	3030.56
448.61	3011.56
448.718	2985.56
448.825	3060.56
448.933	3092.56
449.04	3082.56
449.148	3120.56
449.256	3131.56
449.363	3171.56
449.471	3188.56
449.578	3196.56
449.686	3134.56
449.793	3293.56
449.901	3161.56
450.008	3271.56
450.116	3288.56
450.223	3235.56
450.331	3359.56
450.438	3387.56
450.546	3420.56
450.653	3494.56
450.76	3535.56
450.868	3502.56
450.975	3629.56
451.083	3524.56
451.19	3606.56
451.297	3535.56
451.405	3685.56
451.512	3627.56
451.619	3691.56
451.727	3651.56
451.834	3560.56
451.941	3553.56
452.049	3541.56
452.156	3699.56
452.263	3665.56
452.371	3586.56
452.478	3703.56
452.585	3788.56
452.692	3568.56
452.8	3736.56
452.907	3838.56
453.014	3769.56
453.121	3694.56
453.229	3853.56
453.336	3818.56
453.443	3840.56
453.55	3744.56
453.657	3739.56
453.765	3870.56
453.872	3822.56
453.979	3910.56
454.086	3947.56
454.193	4007.56
454.3	3821.56
454.407	3984.56
454.514	4062.56
454.621	3839.56
454.729	3943.56
454.836	3927.56
454.943	4005.56
455.05	4026.56
455.157	4040.56
455.264	4104.56
455.371	4047.56
455.478	4090.56
455.585	4403.56
455.692	4175.56
455.799	4190.56
455.906	4142.56
456.013	4062.56
456.12	4057.56
456.227	4114.56
456.334	4210.56
456.44	4200.56
456.547	4174.56
456.654	4130.56
456.761	4235.56
456.868	4301.56
456.975	4288.56
457.082	4309.56
457.189	4173.56
457.296	4342.56
457.402	4290.56
457.509	4261.56
457.616	4404.56
457.723	4620.56
457.83	4446.56
457.936	4436.56
458.043	4873.56
458.15	4518.56
458.257	4687.56
458.363	4728.56
458.47	4693.56
458.577	4851.56
458.684	4812.56
458.79	5041.56
458.897	5015.56
459.004	5125.56
459.11	5100.56
459.217	5043.56
459.324	5125.56
459.43	5413.56
459.537	5569.56
459.644	5363.56
459.75	5369.56
459.857	5768.56
459.964	5521.56
460.07	5596.56
460.177	5701.56
460.283	5699.56
460.39	5858.56
460.496	5803.56
460.603	5738.56
460.71	5699.56
460.816	5686.56
460.923	5575.56
461.029	5621.56
461.136	5752.56
461.242	5691.56
461.349	5627.56
461.455	5615.56
461.562	6069.56
461.668	5846.56
461.774	5727.56
461.881	5824.56
461.987	5948.56
462.094	6066.56
462.2	6217.56
462.307	6198.56
462.413	6021.56
462.519	6323.56
462.626	6731.56
462.732	6597.56
462.838	6874.56
462.945	7125.56
463.051	7088.56
463.157	6989.56
463.264	6842.56
463.37	6671.56
463.476	6412.56
463.583	6467.56
463.689	6302.56
463.795	6289.56
463.901	6267.56
464.008	6508.56
464.114	6410.56
464.22	6361.56
464.326	6492.56
464.433	5995.56
464.539	6047.56
464.645	5938.56
464.751	6011.56
464.857	5753.56
464.963	5514.56
465.07	5351.56
465.176	5235.56
465.282	5088.56
465.388	5198.56
465.494	4784.56
465.6	4808.56
465.706	4649.56
465.812	4574.56
465.918	4612.56
466.024	4468.56
466.131	4472.56
466.237	4353.56
466.343	4338.56
466.449	4205.56
466.555	4088.56
466.661	4095.56
466.767	4083.56
466.873	3948.56
466.979	4183.56
467.085	4087.56
467.191	4067.56
467.296	4029.56
467.402	4074.56
467.508	4027.56
467.614	4060.56
467.72	3878.56
467.826	3811.56
467.932	3823.56
468.038	3746.56
468.144	3785.56
468.25	3711.56
468.355	3638.56
468.461	3683.56
468.567	3666.56
468.673	3608.56
468.779	3648.56
468.885	3620.56
468.99	3607.56
469.096	3686.56
469.202	3691.56
469.308	3745.56
469.413	3750.56
469.519	3624.56
469.625	3680.56
469.731	3737.56
469.836	3723.56
469.942	3910.56
470.048	3841.56
470.153	3781.56
470.259	3767.56
470.365	3843.56
470.47	3883.56
470.576	3746.56
470.682	3703.56
470.787	3701.56
470.893	3578.56
470.999	3557.56
471.104	3712.56
471.21	3505.56
471.315	3379.56
471.421	3306.56
471.527	3621.56
471.632	3431.56
471.738	3325.56
471.843	3337.56
471.949	3312.56
472.054	3246.56
472.16	3236.56
472.265	3231.56
472.371	3094.56
472.476	3215.56
472.582	3284.56
472.687	3129.56
472.793	3112.56
472.898	3182.56
473.003	3096.56
473.109	3064.56
473.214	3027.56
473.32	3013.56
473.425	3135.56
473.53	3117.56
473.636	3034.56
473.741	2965.56
473.847	2992.56
473.952	3053.56
474.057	3022.56
474.163	3035.56
474.268	3031.56
474.373	3116.56
474.478	3002.56
474.584	3010.56
474.689	3078.56
474.794	3076.56
474.9	3316.56
475.005	2999.56
475.11	3175.56
475.215	3111.56
475.321	3045.56
475.426	3151.56
475.531	3224.56
475.636	3005.56
475.741	3020.56
475.846	3180.56
475.952	3360.56
476.057	3108.56
476.162	3200.56
476.267	3317.56
476.372	3401.56
476.477	3126.56
476.582	3301.56
476.687	3143.56
476.793	3167.56
476.898	3232.56
477.003	3163.56
477.108	3195.56
477.213	3191.56
477.318	3321.56
477.423	3353.56
477.528	3414.56
477.633	3408.56
477.738	3312.56
477.843	3389.56
477.948	3498.56
478.053	3417.56
478.158	3432.56
478.263	3563.56
478.368	3543.56
478.473	3583.56
478.578	3667.56
478.682	3637.56
478.787	3687.56
478.892	3624.56
478.997	3754.56
479.102	3673.56
479.207	3590.56
479.312	3826.56
479.417	3685.56
479.521	3626.56
479.626	3747.56
479.731	3853.56
479.836	3680.56
479.941	3945.56
480.045	3940.56
480.15	4008.56
480.255	3968.56
480.36	4017.56
480.465	4012.56
480.569	4055.56
480.674	3924.56
480.779	3837.56
480.883	3772.56
480.988	3933.56
481.093	3862.56
481.197	3745.56
481.302	3829.56
481.407	3876.56
481.511	5145.56
481.616	3828.56
481.721	3848.56
481.825	3966.56
481.93	3631.56
482.035	3826.56
482.139	3883.56
482.244	3855.56
482.348	3778.56
482.453	3850.56
482.557	3967.56
482.662	3778.56
482.767	3893.56
482.871	3891.56
482.976	3871.56
483.08	4041.56
483.185	4176.56
483.289	3897.56
483.394	4048.56
483.498	4139.56
483.603	3974.56
483.707	4122.56
483.811	4226.56
483.916	4191.56
484.02	4183.56
484.125	4281.56
484.229	4252.56
484.333	4451.56
484.438	4300.56
484.542	4242.56
484.647	4291.56
484.751	4428.56
484.855	4426.56
484.96	4418.56
485.064	4544.56
485.168	4539.56
485.273	4532.56
485.377	4669.56
485.481	4934.56
485.585	4611.56
485.69	4759.56
485.794	4774.56
485.898	4744.56
486.002	4709.56
486.107	4773.56
486.211	4755.56
486.315	4793.56
486.419	4857.56
486.524	4833.56
486.628	4738.56
486.732	4715.56
486.836	4754.56
486.94	4899.56
487.044	4728.56
487.148	4793.56
487.253	4720.56
487.357	4791.56
487.461	5052.56
487.565	4838.56
487.669	4686.56
487.773	4768.56
487.877	4961.56
487.981	4753.56
488.085	4756.56
488.189	4883.56
488.293	4871.56
488.397	5213.56
488.501	4853.56
488.605	4711.56
488.709	4828.56
488.813	4815.56
488.917	4732.56
489.021	4869.56
489.125	5032.56
489.229	4776.56
489.333	4906.56
489.437	4840.56
489.541	4879.56
489.645	4747.56
489.749	4816.56
489.853	5002.56
489.956	4764.56
490.06	4942.56
490.164	4832.56
490.268	4713.56
490.372	4759.56
490.476	4838.56
490.579	4838.56
490.683	5559.56
490.787	4916.56
490.891	4864.56
490.995	4897.56
491.098	4832.56
491.202	4936.56
491.306	4929.56
491.41	4915.56
491.513	4902.56
491.617	4926.56
491.721	5059.56
491.824	5212.56
491.928	4897.56
492.032	5171.56
492.136	4826.56
492.239	4864.56
492.343	4911.56
492.446	5330.56
492.55	4971.56
492.654	4774.56
492.757	4766.56
492.861	4896.56
492.965	4842.56
493.068	4844.56
493.172	4871.56
493.275	4888.56
493.379	4903.56
493.482	5002.56
493.586	5076.56
493.689	5067.56
493.793	4886.56
493.896	5033.56
494	4992.56
494.103	5046.56
494.207	5358.56
494.31	5322.56
494.414	5057.56
494.517	4931.56
494.621	4806.56
494.724	4854.56
494.828	4894.56
494.931	4824.56
495.034	4811.56
495.138	5004.56
495.241	4813.56
495.345	5606.56
495.448	4825.56
495.551	4783.56
495.655	4786.56
495.758	4779.56
495.861	4707.56
495.965	4781.56
496.068	4734.56
496.171	4846.56
496.274	4768.56
496.378	4855.56
496.481	4848.56
496.584	4877.56
496.687	4843.56
496.791	4939.56
496.894	4974.56
496.997	4937.56
497.1	4992.56
497.204	5013.56
497.307	4857.56
497.41	5186.56
497.513	5337.56
497.616	5210.56
497.719	5212.56
497.823	5282.56
497.926	5364.56
498.029	5435.56
498.132	5557.56
498.235	5660.56
498.338	5620.56
498.441	5871.56
498.544	6001.56
498.647	6047.56
498.75	6411.56
498.853	6718.56
498.956	6680.56
499.059	6996.56
499.163	7064.56
499.266	7422.56
499.369	7563.56
499.471	7808.56
499.574	8197.56
499.677	8325.56
499.78	8847.56
499.883	9285.56
499.986	9745.56
500.089	10097.56
500.192	10293.56
500.295	10480.56
500.398	10346.56
500.501	10176.56
500.604	9946.56
500.707	9450.56
500.809	9137.56
500.912	8976.56
501.015	8432.56
501.118	7975.56
501.221	7726.56
501.324	7326.56
501.426	7062.56
501.529	6653.56
501.632	6581.56
501.735	6204.56
501.837	6188.56
501.94	5921.56
502.043	5745.56
502.146	5624.56
502.248	5546.56
502.351	5370.56
502.454	5367.56
502.557	5193.56
502.659	5117.56
502.762	4875.56
502.865	4841.56
502.967	4787.56
503.07	4621.56
503.173	4560.56
503.275	4595.56
503.378	4517.56
503.48	4419.56
503.583	4526.56
503.686	4410.56
503.788	4674.56
503.891	4427.56
503.993	4613.56
504.096	4361.56
504.198	4437.56
504.301	4413.56
504.403	4392.56
504.506	4392.56
504.608	4342.56
504.711	4150.56
504.813	4235.56
504.916	4045.56
505.018	3890.56
505.121	3859.56
505.223	3908.56
505.326	3775.56
505.428	3814.56
505.531	3771.56
505.633	3646.56
505.735	3569.56
505.838	3588.56
505.94	3600.56
506.042	3464.56
506.145	3468.56
506.247	3608.56
506.35	3346.56
506.452	3522.56
506.554	3544.56
506.656	3382.56
506.759	3376.56
506.861	3382.56
506.963	3351.56
507.066	3365.56
507.168	3401.56
507.27	3349.56
507.372	3258.56
507.475	3239.56
507.577	3394.56
507.679	3255.56
507.781	3164.56
507.883	3322.56
507.986	3221.56
508.088	3126.56
508.19	3163.56
508.292	3219.56
508.394	3132.56
508.496	3046.56
508.598	3175.56
508.701	3040.56
508.803	3115.56
508.905	3132.56
509.007	3131.56
509.109	3192.56
509.211	3211.56
509.313	3167.56
509.415	3050.56
509.517	3149.56
509.619	3105.56
509.721	3155.56
509.823	3071.56
509.925	3296.56
510.027	3053.56
510.129	3127.56
510.231	3184.56
510.333	3021.56
510.435	2973.56
510.537	3104.56
510.639	3102.56
510.741	3121.56
510.843	3091.56
510.945	3040.56
511.047	3069.56
511.148	3128.56
511.25	3030.56
511.352	3127.56
511.454	2924.56
511.556	3097.56
511.658	2984.56
511.76	3183.56
511.861	3341.56
511.963	3045.56
512.065	3031.56
512.167	3092.56
512.268	3232.56
512.37	3140.56
512.472	3094.56
512.574	3179.56
512.676	3216.56
512.777	3049.56
512.879	3063.56
512.981	2990.56
513.082	3049.56
513.184	3109.56
513.286	3574.56
513.387	3187.56
513.489	3298.56
513.591	3294.56
513.692	3202.56
513.794	3251.56
513.896	3080.56
513.997	3078.56
514.099	3087.56
514.2	3275.56
514.302	3176.56
514.404	3187.56
514.505	3178.56
514.607	3301.56
514.708	3288.56
514.81	3353.56
514.911	3344.56
515.013	3384.56
515.114	3297.56
515.216	3321.56
515.317	3348.56
515.419	3383.56
515.52	3479.56
515.622	3476.56
515.723	3439.56
515.825	3711.56
515.926	3485.56
516.027	3576.56
516.129	3591.56
516.23	3613.56
516.332	3661.56
516.433	3715.56
516.534	3833.56
516.636	3779.56
516.737	3834.56
516.838	5023.56
516.94	4200.56
517.041	4024.56
517.142	4387.56
517.244	4382.56
517.345	4358.56
517.446	4481.56
517.547	4443.56
517.649	4282.56
517.75	4492.56
517.851	4393.56
517.952	4615.56
518.054	4465.56
518.155	4518.56
518.256	4239.56
518.357	4379.56
518.458	4142.56
518.56	4015.56
518.661	4103.56
518.762	4064.56
518.863	4105.56
518.964	3936.56
519.065	3756.56
519.166	3915.56
519.268	3784.56
519.369	4067.56
519.47	3758.56
519.571	3806.56
519.672	3678.56
519.773	3829.56
519.874	3722.56
519.975	3648.56
520.076	3712.56
520.177	3735.56
520.278	3700.56
520.379	3677.56
520.48	3542.56
520.581	3566.56
520.682	3567.56
520.783	3612.56
520.884	3647.56
520.985	3563.56
521.086	3670.56
521.187	3551.56
521.288	3590.56
521.389	3688.56
521.489	3535.56
521.59	3495.56
521.691	3535.56
521.792	3501.56
521.893	3617.56
521.994	3638.56
522.095	3683.56
522.195	3626.56
522.296	3652.56
522.397	3699.56
522.498	3601.56
522.599	3557.56
522.699	3601.56
522.8	3565.56
522.901	3609.56
523.002	3650.56
523.102	3823.56
523.203	3569.56
523.304	3771.56
523.405	3724.56
523.505	3592.56
523.606	3575.56
523.707	3702.56
523.807	3620.56
523.908	3634.56
524.009	3808.56
524.109	3648.56
524.21	3619.56
524.31	3680.56
524.411	3802.56
524.512	3664.56
524.612	3670.56
524.713	3866.56
524.813	3562.56
524.914	3860.56
525.014	7916.56
525.115	3922.56
525.216	3717.56
525.316	3648.56
525.417	3590.56
525.517	3589.56
525.618	3579.56
525.718	3620.56
525.819	3556.56
525.919	3638.56
526.019	3645.56
526.12	3668.56
526.22	3520.56
526.321	3593.56
526.421	3500.56
526.522	3537.56
526.622	3576.56
526.722	3523.56
526.823	3582.56
526.923	3531.56
527.023	3657.56
527.124	3513.56
527.224	3642.56
527.324	3531.56
527.425	3532.56
527.525	3559.56
527.625	3622.56
527.726	3631.56
527.826	3677.56
527.926	3642.56
528.026	3622.56
528.127	3466.56
528.227	3652.56
528.327	3725.56
528.427	3657.56
528.528	3638.56
528.628	3741.56
528.728	3543.56
528.828	3713.56
528.928	3756.56
529.029	3520.56
529.129	3579.56
529.229	3592.56
529.329	3575.56
529.429	3687.56
529.529	3690.56
529.629	3657.56
529.729	3526.56
529.829	3674.56
529.93	3525.56
530.03	3479.56
530.13	3493.56
530.23	3507.56
530.33	3526.56
530.43	3435.56
530.53	3580.56
530.63	3547.56
530.73	3396.56
530.83	3352.56
530.93	3350.56
531.03	3404.56
531.13	3427.56
531.23	3488.56
531.33	3441.56
531.429	3488.56
531.529	3500.56
531.629	3384.56
531.729	3297.56
531.829	3363.56
531.929	3389.56
532.029	3354.56
532.129	3361.56
532.229	3439.56
532.328	3368.56
532.428	3334.56
532.528	3280.56
532.628	3334.56
532.728	3395.56
532.827	3404.56
532.927	3397.56
533.027	3369.56
533.127	3508.56
533.227	3356.56
533.326	3400.56
533.426	3252.56
533.526	3531.56
533.625	3411.56
533.725	3577.56
533.825	3389.56
533.924	3206.56
534.024	3179.56
534.124	3162.56
534.223	3197.56
534.323	3580.56
534.423	3315.56
534.522	3185.56
534.622	3094.56
534.722	3134.56
534.821	3215.56
534.921	3051.56
535.02	3046.56
535.12	3213.56
535.219	3284.56
535.319	3214.56
535.419	3233.56
535.518	3126.56
535.618	3074.56
535.717	3220.56
535.817	2952.56
535.916	2894.56
536.016	3031.56
536.115	2930.56
536.215	2885.56
536.314	2936.56
536.413	2836.56
536.513	2892.56
536.612	2826.56
536.712	2791.56
536.811	2819.56
536.91	2815.56
537.01	2839.56
537.109	2849.56
537.209	2872.56
537.308	2826.56
537.407	2813.56
537.507	2845.56
537.606	2731.56
537.705	2881.56
537.805	2837.56
537.904	2711.56
538.003	2835.56
538.102	2851.56
538.202	2852.56
538.301	2917.56
538.4	2812.56
538.499	2812.56
538.599	2932.56
538.698	3101.56
538.797	2785.56
538.896	2856.56
538.995	2819.56
539.095	2841.56
539.194	3013.56
539.293	2798.56
539.392	2726.56
539.491	2728.56
539.59	2745.56
539.689	2761.56
539.789	2767.56
539.888	2612.56
539.987	2573.56
540.086	2648.56
540.185	2626.56
540.284	2777.56
540.383	2707.56
540.482	2588.56
540.581	2731.56
540.68	2684.56
540.779	2756.56
540.878	2792.56
540.977	2752.56
541.076	2692.56
541.175	2725.56
541.274	2970.56
541.373	2743.56
541.472	2757.56
541.571	2670.56
541.67	4025.56
541.769	2884.56
541.868	2727.56
541.966	2810.56
542.065	2723.56
542.164	2745.56
542.263	2651.56
542.362	2695.56
542.461	2746.56
542.56	2673.56
542.658	2650.56
542.757	2495.56
542.856	2565.56
542.955	2461.56
543.054	2506.56
543.152	2699.56
543.251	2514.56
543.35	2739.56
543.449	2620.56
543.547	2604.56
543.646	2544.56
543.745	2614.56
543.843	2683.56
543.942	2708.56
544.041	2561.56
544.14	2733.56
544.238	2590.56
544.337	2817.56
544.436	2773.56
544.534	2863.56
544.633	2702.56
544.731	2730.56
544.83	2705.56
544.929	2695.56
545.027	2674.56
545.126	2646.56
545.224	2778.56
545.323	2680.56
545.421	2721.56
545.52	2728.56
545.619	2746.56
545.717	2696.56
545.816	2739.56
545.914	2772.56
546.013	2961.56
546.111	2839.56
546.209	2615.56
546.308	2640.56
546.406	2613.56
546.505	2763.56
546.603	2703.56
546.702	2676.56
546.8	2579.56
546.899	2626.56
546.997	2769.56
547.095	2670.56
547.194	2685.56
547.292	2719.56
547.39	2746.56
547.489	2719.56
547.587	2962.56
547.685	2639.56
547.784	2907.56
547.882	2722.56
547.98	2688.56
548.079	2714.56
548.177	2675.56
548.275	2692.56
548.373	2769.56
548.472	2640.56
548.57	2695.56
548.668	2778.56
548.766	2664.56
548.864	2791.56
548.963	2691.56
549.061	2798.56
549.159	2622.56
549.257	2772.56
549.355	2702.56
549.454	2638.56
549.552	2830.56
549.65	2653.56
549.748	2646.56
549.846	2687.56
549.944	2681.56
550.042	2574.56
550.14	2652.56
550.238	2708.56
550.336	2534.56
550.434	2522.56
550.532	2587.56
550.631	2758.56
550.729	2571.56
550.827	2678.56
550.925	2586.56
551.023	2584.56
551.121	2573.56
551.218	2493.56
551.316	2497.56
551.414	2516.56
551.512	2430.56
551.61	2504.56
551.708	2637.56
551.806	2631.56
551.904	2499.56
552.002	2614.56
552.1	2658.56
552.198	2648.56
552.296	2798.56
552.393	2917.56
552.491	2889.56
552.589	2938.56
552.687	2924.56
552.785	2944.56
552.882	2946.56
552.98	3118.56
553.078	3005.56
553.176	2958.56
553.274	2833.56
553.371	2997.56
553.469	2923.56
553.567	2837.56
553.665	2818.56
553.762	3264.56
553.86	2937.56
553.958	2879.56
554.055	2762.56
554.153	2807.56
554.251	2763.56
554.348	2808.56
554.446	2619.56
554.544	2671.56
554.641	3068.56
554.739	2623.56
554.837	2644.56
554.934	2618.56
555.032	2590.56
555.129	2527.56
555.227	2879.56
555.324	6474.56
555.422	2850.56
555.519	2541.56
555.617	2527.56
555.715	2396.56
555.812	2911.56
555.91	2469.56
556.007	2523.56
556.105	2414.56
556.202	2538.56
556.299	2399.56
556.397	2454.56
556.494	2434.56
556.592	2435.56
556.689	2435.56
556.787	2485.56
556.884	2410.56
556.981	2422.56
557.079	2433.56
557.176	2500.56
557.273	2448.56
557.371	2556.56
557.468	2465.56
557.566	2481.56
557.663	2487.56
557.76	2533.56
557.857	2378.56
557.955	2456.56
558.052	2547.56
558.149	2524.56
558.247	2591.56
558.344	2381.56
558.441	2448.56
558.538	2388.56
558.636	2369.56
558.733	2506.56
558.83	2495.56
558.927	2459.56
559.024	2506.56
559.122	2395.56
559.219	2465.56
559.316	2519.56
559.413	2547.56
559.51	2343.56
559.607	2492.56
559.704	2568.56
559.801	2496.56
559.899	2445.56
559.996	2795.56
560.093	2478.56
560.19	2403.56
560.287	2556.56
560.384	2648.56
560.481	2433.56
560.578	2494.56
560.675	2444.56
560.772	2564.56
560.869	2461.56
560.966	2615.56
561.063	2449.56
561.16	2559.56
561.257	2520.56
561.354	2454.56
561.451	2449.56
561.548	2558.56
561.645	2705.56
561.742	2395.56
561.838	2431.56
561.935	2511.56
562.032	2512.56
562.129	2544.56
562.226	2600.56
562.323	2512.56
562.42	2539.56
562.516	2538.56
562.613	2436.56
562.71	2542.56
562.807	3288.56
562.904	2535.56
563	2507.56
563.097	2504.56
563.194	2537.56
563.291	2530.56
563.387	2537.56
563.484	2596.56
563.581	2526.56
563.678	2523.56
563.774	3030.56
563.871	2646.56
563.968	2635.56
564.064	2719.56
564.161	2624.56
564.258	2677.56
564.354	2715.56
564.451	2680.56
564.548	2708.56
564.644	2708.56
564.741	2760.56
564.837	2674.56
564.934	2751.56
565.031	2862.56
565.127	2821.56
565.224	2927.56
565.32	3109.56
565.417	2945.56
565.513	2991.56
565.61	3128.56
565.706	3152.56
565.803	3159.56
565.899	3223.56
565.996	3326.56
566.092	3387.56
566.189	3429.56
566.285	3628.56
566.382	3564.56
566.478	3790.56
566.574	3937.56
566.671	3839.56
566.767	3774.56
566.864	3768.56
566.96	3905.56
567.056	3813.56
567.153	4214.56
567.249	4116.56
567.345	4179.56
567.442	4282.56
567.538	4332.56
567.634	4325.56
567.731	4354.56
567.827	4456.56
567.923	4382.56
568.019	4089.56
568.116	3955.56
568.212	3755.56
568.308	3796.56
568.404	3573.56
568.501	3540.56
568.597	3436.56
568.693	3292.56
568.789	3807.56
568.885	3063.56
568.982	3078.56
569.078	2968.56
569.174	2924.56
569.27	2762.56
569.366	2931.56
569.462	2784.56
569.558	2708.56
569.655	2686.56
569.751	2612.56
569.847	2566.56
569.943	2583.56
570.039	2617.56
570.135	2966.56
570.231	2533.56
570.327	2751.56
570.423	2627.56
570.519	2608.56
570.615	2532.56
570.711	2674.56
570.807	2610.56
570.903	2672.56
570.999	2681.56
571.095	2584.56
571.191	2549.56
571.287	2559.56
571.383	2525.56
571.479	2496.56
571.574	2512.56
571.67	2398.56
571.766	2572.56
571.862	2373.56
571.958	2310.56
572.054	2317.56
572.15	2226.56
572.246	2189.56
572.341	2338.56
572.437	2213.56
572.533	2325.56
572.629	2185.56
572.725	2184.56
572.82	2125.56
572.916	2263.56
573.012	2122.56
573.108	2216.56
573.203	2062.56
573.299	2028.56
573.395	2075.56
573.49	2000.56
573.586	2057.56
573.682	2017.56
573.778	2211.56
573.873	2029.56
573.969	1980.56
574.065	2087.56
574.16	2056.56
574.256	2017.56
574.351	2127.56
574.447	1971.56
574.543	1960.56
574.638	2112.56
574.734	2128.56
574.829	2219.56
574.925	2028.56
575.02	2064.56
575.116	1928.56
575.212	1996.56
575.307	2180.56
575.403	1969.56
575.498	1972.56
575.594	1962.56
575.689	2018.56
575.784	1957.56
575.88	1922.56
575.975	1985.56
576.071	1845.56
576.166	1791.56
576.262	1960.56
576.357	1817.56
576.452	1998.56
576.548	1928.56
576.643	1851.56
576.739	1903.56
576.834	1907.56
576.929	1899.56
577.025	2480.56
577.12	1813.56
577.215	1791.56
577.311	1777.56
577.406	1854.56
577.501	1993.56
577.597	1714.56
577.692	1935.56
577.787	1895.56
577.882	1703.56
577.978	1807.56
578.073	1764.56
578.168	1648.56
578.263	1747.56
578.358	1703.56
578.454	1710.56
578.549	1591.56
578.644	1622.56
578.739	1738.56
578.834	1568.56
578.929	1624.56
579.025	1623.56
579.12	1718.56
579.215	1875.56
579.31	1870.56
579.405	1553.56
579.5	1746.56
579.595	1583.56
579.69	1541.56
579.785	1558.56
579.88	1541.56
579.975	1631.56
580.07	1559.56
580.165	1506.56
580.26	1727.56
580.355	1538.56
580.45	1614.56
580.545	1595.56
580.64	1532.56
580.735	1676.56
580.83	1612.56
580.925	1570.56
581.02	1476.56
581.115	1495.56
581.21	1476.56
581.305	1507.56
581.4	1510.56
581.495	1540.56
581.589	1477.56
581.684	1422.56
581.779	1590.56
581.874	1522.56
581.969	1579.56
582.064	1516.56
582.158	1456.56
582.253	1412.56
582.348	1472.56
582.443	1515.56
582.537	1481.56
582.632	1702.56
582.727	1556.56
582.822	1393.56
582.916	1415.56
583.011	1476.56
583.106	1471.56
583.201	1388.56
583.295	1427.56
583.39	1411.56
583.485	1360.56
583.579	3252.56
583.674	1600.56
583.769	1640.56
583.863	1415.56
583.958	1434.56
584.052	1256.56
584.147	1318.56
584.242	1313.56
584.336	1345.56
584.431	1519.56
584.525	1327.56
584.62	1497.56
584.714	1430.56
584.809	1352.56
584.903	1388.56
584.998	1398.56
585.092	1263.56
585.187	1403.56
585.281	1282.56
585.376	1322.56
585.47	1407.56
585.565	1320.56
585.659	1244.56
585.754	1293.56
585.848	1344.56
585.942	1246.56
586.037	1320.56
586.131	3571.56
586.226	1466.56
586.32	1335.56
586.414	1248.56
586.509	1369.56
586.603	1343.56
586.697	1363.56
586.792	1228.56
586.886	1190.56
586.98	1381.56
587.075	1264.56
587.169	1204.56
587.263	1498.56
587.357	1305.56
587.452	1124.56
587.546	1344.56
587.64	1250.56
587.734	1198.56
587.829	1316.56
587.923	1271.56
588.017	1274.56
588.111	1272.56
588.205	1379.56
588.3	1252.56
588.394	1193.56
588.488	1246.56
588.582	1304.56
588.676	1381.56
588.77	1664.56
588.864	2711.56
588.958	2856.56
589.052	2425.56
589.147	1940.56
589.241	1532.56
589.335	1422.56
589.429	1990.56
589.523	2326.56
589.617	2243.56
589.711	1799.56
589.805	1544.56
589.899	1388.56
589.993	1199.56
590.087	1221.56
590.181	1203.56
590.275	1245.56
590.369	1242.56
590.462	1143.56
590.556	1174.56
590.65	1167.56
590.744	1212.56
590.838	1164.56
590.932	1164.56
591.026	1261.56
591.12	1334.56
591.214	1167.56
591.307	1240.56
591.401	1198.56
591.495	1269.56
591.589	1238.56
591.683	1267.56
591.777	1252.56
591.87	1604.56
591.964	1287.56
592.058	1205.56
592.152	1296.56
592.245	1303.56
592.339	1355.56
592.433	1409.56
592.527	1373.56
592.62	1249.56
592.714	1380.56
592.808	1408.56
592.901	1363.56
592.995	1284.56
593.089	1609.56
593.182	1392.56
593.276	1339.56
593.37	1351.56
593.463	1320.56
593.557	1302.56
593.65	1284.56
593.744	1398.56
593.837	1443.56
593.931	1291.56
594.025	4595.56
594.118	1615.56
594.212	1307.56
594.305	1276.56
594.399	1382.56
594.492	1612.56
594.586	1263.56
594.679	1257.56
594.773	1219.56
594.866	1269.56
594.96	1293.56
595.053	1163.56
595.146	1195.56
595.24	1198.56
595.333	1094.56
595.427	1016.56
595.52	1132.56
595.614	1207.56
595.707	1094.56
595.8	1076.56
595.894	1104.56
595.987	974.56
596.08	1032.56
596.174	1507.56
596.267	1144.56
596.36	1154.56
596.454	1229.56
596.547	1078.56
596.64	1022.56
596.733	1055.56
596.827	1119.56
596.92	1000.56
597.013	913.56
597.106	944.56
597.2	890.56
597.293	878.56
597.386	1207.56
597.479	1072.56
597.572	971.56
597.666	962.56
597.759	900.56
597.852	982.56
597.945	928.56
598.038	906.56
598.131	927.56
598.224	907.56
598.317	1027.56
598.411	963.56
598.504	904.56
598.597	983.56
598.69	873.56
598.783	901.56
598.876	986.56
598.969	910.56
599.062	860.56
599.155	994.56
599.248	896.56
599.341	921.56
599.434	909.56
599.527	982.56
599.62	858.56
599.713	861.56
599.806	968.56
599.899	1053.56
599.991	868.56
600.084	1156.56
600.177	895.56
600.27	847.56
600.363	1099.56
600.456	907.56
600.549	951.56
600.642	880.56
600.734	868.56
600.827	864.56
600.92	1003.56
601.013	913.56
601.106	927.56
601.199	855.56
601.291	957.56
601.384	882.56
601.477	1078.56
601.57	1000.56
601.662	857.56
601.755	867.56
601.848	943.56
601.94	905.56
602.033	955.56
602.126	892.56
602.219	880.56
602.311	1013.56
602.404	931.56
602.497	905.56
602.589	834.56
602.682	936.56
602.774	997.56
602.867	872.56
602.96	876.56
603.052	910.56
603.145	874.56
603.237	837.56
603.33	840.56
603.422	953.56
603.515	787.56
603.608	832.56
603.7	884.56
603.793	854.56
603.885	872.56
603.978	871.56
604.07	774.56
604.163	788.56
604.255	933.56
604.347	813.56
604.44	792.56
604.532	843.56
604.625	888.56
604.717	782.56
604.81	857.56
604.902	823.56
604.994	785.56
605.087	826.56
605.179	899.56
605.271	824.56
605.364	846.56
605.456	895.56
605.548	860.56
605.641	821.56
605.733	817.56
605.825	877.56
605.918	809.56
606.01	991.56
606.102	1376.56
606.194	876.56
606.287	981.56
606.379	878.56
606.471	863.56
606.563	855.56
606.655	960.56
606.748	923.56
606.84	837.56
606.932	908.56
607.024	835.56
607.116	790.56
607.208	804.56
607.301	902.56
607.393	776.56
607.485	858.56
607.577	921.56
607.669	922.56
607.761	852.56
607.853	1090.56
607.945	761.56
608.037	736.56
608.129	775.56
608.221	830.56
608.313	788.56
608.405	874.56
608.497	832.56
608.589	736.56
608.681	814.56
608.773	924.56
608.865	832.56
608.957	831.56
609.049	799.56
609.141	892.56
609.233	761.56
609.325	780.56
609.417	772.56
609.509	805.56
609.601	915.56
609.693	904.56
609.784	818.56
609.876	832.56
609.968	916.56
610.06	2895.56
610.152	1042.56
610.244	1080.56
610.335	816.56
610.427	751.56
610.519	803.56
610.611	821.56
610.702	771.56
610.794	859.56
610.886	873.56
610.978	749.56
611.069	1212.56
611.161	806.56
611.253	803.56
611.344	713.56
611.436	706.56
611.528	791.56
611.62	648.56
611.711	710.56
611.803	699.56
611.894	632.56
611.986	630.56
612.078	732.56
612.169	681.56
612.261	601.56
612.352	671.56
612.444	590.56
612.536	734.56
612.627	688.56
612.719	542.56
612.81	532.56
612.902	542.56
612.993	598.56
613.085	576.56
613.176	518.56
613.268	629.56
613.359	511.56
613.451	576.56
613.542	592.56
613.634	518.56
613.725	537.56
613.816	641.56
613.908	504.56
613.999	487.56
614.091	428.56
614.182	425.56
614.273	495.56
614.365	418.56
614.456	357.56
614.547	369.56
614.639	380.56
614.73	452.56
614.821	455.56
614.913	306.56
615.004	361.56
615.095	286.56
615.187	294.56
