Data from 28g_HRC06701__28__394.txt Node

Date: Thu Apr 18 02:20:59 CDT 2024
User: Estudiantes 2
Spectrometer: HR+C0670
Trigger mode: 4
Integration Time (sec): 1.000000E0
Scans to average: 1
Electric dark correction enabled: true
Nonlinearity correction enabled: false
Boxcar width: 0
XAxis mode: Wavelengths
Number of Pixels in Spectrum: 2048
>>>>>Begin Spectral Data<<<<<
407.81	-126.06
407.921	-126.06
408.032	-126.06
408.143	-98.06
408.254	-110.06
408.365	38.94
408.476	259.94
408.587	-18.06
408.699	-34.06
408.81	-7.06
408.921	-28.06
409.032	-75.06
409.143	27.94
409.254	68.94
409.365	48.94
409.476	-39.06
409.587	41.94
409.698	48.94
409.809	99.94
409.92	-4.06
410.031	-6.06
410.142	66.94
410.253	51.94
410.364	81.94
410.475	-24.06
410.585	14.94
410.696	47.94
410.807	-34.06
410.918	17.94
411.029	104.94
411.14	47.94
411.251	-20.06
411.362	97.94
411.472	91.94
411.583	52.94
411.694	72.94
411.805	54.94
411.916	46.94
412.026	106.94
412.137	44.94
412.248	5.94
412.359	13.94
412.47	25.94
412.58	-9.06
412.691	25.94
412.802	52.94
412.912	24.94
413.023	24.94
413.134	38.94
413.245	154.94
413.355	20.94
413.466	-18.06
413.577	67.94
413.687	113.94
413.798	-4.06
413.909	115.94
414.019	11.94
414.13	1.94
414.24	-1.06
414.351	91.94
414.462	206.94
414.572	85.94
414.683	114.94
414.793	4.94
414.904	368.94
415.014	84.94
415.125	-13.06
415.235	82.94
415.346	186.94
415.456	155.94
415.567	33.94
415.677	74.94
415.788	110.94
415.898	44.94
416.009	36.94
416.119	108.94
416.23	25.94
416.34	-24.06
416.45	119.94
416.561	910.94
416.671	180.94
416.782	3.94
416.892	-22.06
417.002	53.94
417.113	117.94
417.223	105.94
417.333	-12.06
417.444	19.94
417.554	136.94
417.664	58.94
417.775	-26.06
417.885	49.94
417.995	3.94
418.106	173.94
418.216	123.94
418.326	89.94
418.436	-6.06
418.547	20.94
418.657	14.94
418.767	94.94
418.877	21.94
418.987	78.94
419.098	24.94
419.208	7.94
419.318	140.94
419.428	78.94
419.538	-6.06
419.648	98.94
419.759	108.94
419.869	102.94
419.979	51.94
420.089	79.94
420.199	12.94
420.309	43.94
420.419	122.94
420.529	20.94
420.639	578.94
420.749	187.94
420.859	107.94
420.969	51.94
421.079	316.94
421.189	147.94
421.299	99.94
421.409	26.94
421.519	196.94
421.629	134.94
421.739	60.94
421.849	0.94
421.959	-29.06
422.069	91.94
422.179	64.94
422.289	-11.06
422.399	21.94
422.509	134.94
422.619	3586.94
422.729	411.94
422.838	19.94
422.948	84.94
423.058	-17.06
423.168	-17.06
423.278	77.94
423.388	52.94
423.498	57.94
423.607	76.94
423.717	316.94
423.827	359.94
423.937	76.94
424.046	115.94
424.156	127.94
424.266	41.94
424.376	285.94
424.485	203.94
424.595	47.94
424.705	17.94
424.815	62.94
424.924	446.94
425.034	201.94
425.144	-9.06
425.253	50.94
425.363	96.94
425.473	155.94
425.582	-4.06
425.692	18.94
425.801	34.94
425.911	147.94
426.021	78.94
426.13	166.94
426.24	265.94
426.349	144.94
426.459	147.94
426.568	4.94
426.678	139.94
426.787	68.94
426.897	26.94
427.006	51.94
427.116	98.94
427.225	99.94
427.335	81.94
427.444	28.94
427.554	156.94
427.663	46.94
427.773	26.94
427.882	144.94
427.992	31.94
428.101	24.94
428.21	61.94
428.32	47.94
428.429	-16.06
428.539	262.94
428.648	72.94
428.757	104.94
428.867	71.94
428.976	220.94
429.085	65.94
429.195	30.94
429.304	96.94
429.413	77.94
429.523	86.94
429.632	129.94
429.741	76.94
429.85	-10.06
429.96	115.94
430.069	71.94
430.178	8.94
430.287	322.94
430.397	116.94
430.506	36.94
430.615	32.94
430.724	103.94
430.833	64.94
430.943	81.94
431.052	108.94
431.161	12.94
431.27	44.94
431.379	34.94
431.488	196.94
431.597	93.94
431.706	116.94
431.816	88.94
431.925	40.94
432.034	39.94
432.143	144.94
432.252	51.94
432.361	132.94
432.47	121.94
432.579	72.94
432.688	33.94
432.797	88.94
432.906	69.94
433.015	104.94
433.124	477.94
433.233	160.94
433.342	126.94
433.451	38.94
433.56	86.94
433.669	76.94
433.778	40.94
433.886	99.94
433.995	86.94
434.104	186.94
434.213	92.94
434.322	81.94
434.431	170.94
434.54	90.94
434.649	250.94
434.757	73.94
434.866	41.94
434.975	170.94
435.084	153.94
435.193	126.94
435.301	337.94
435.41	480.94
435.519	540.94
435.628	113.94
435.737	87.94
435.845	84.94
435.954	36.94
436.063	143.94
436.171	70.94
436.28	110.94
436.389	229.94
436.498	95.94
436.606	90.94
436.715	234.94
436.823	105.94
436.932	26.94
437.041	67.94
437.149	157.94
437.258	37.94
437.367	46.94
437.475	94.94
437.584	291.94
437.692	87.94
437.801	1627.94
437.91	246.94
438.018	47.94
438.127	50.94
438.235	138.94
438.344	32.94
438.452	101.94
438.561	53.94
438.669	14.94
438.778	30.94
438.886	72.94
438.995	-5.06
439.103	51.94
439.212	86.94
439.32	-15.06
439.428	28.94
439.537	99.94
439.645	138.94
439.754	64.94
439.862	41.94
439.97	105.94
440.079	28.94
440.187	9.94
440.295	196.94
440.404	41.94
440.512	61.94
440.62	164.94
440.729	141.94
440.837	129.94
440.945	723.94
441.054	190.94
441.162	54.94
441.27	141.94
441.378	85.94
441.487	53.94
441.595	365.94
441.703	214.94
441.811	120.94
441.92	81.94
442.028	100.94
442.136	105.94
442.244	128.94
442.352	97.94
442.461	9.94
442.569	-29.06
442.677	28.94
442.785	135.94
442.893	38.94
443.001	15.94
443.109	91.94
443.217	17.94
443.325	-17.06
443.434	556.94
443.542	304.94
443.65	73.94
443.758	214.94
443.866	66.94
443.974	327.94
444.082	124.94
444.19	131.94
444.298	77.94
444.406	130.94
444.514	127.94
444.622	139.94
444.73	131.94
444.838	137.94
444.946	146.94
445.054	101.94
445.161	61.94
445.269	79.94
445.377	76.94
445.485	128.94
445.593	126.94
445.701	275.94
445.809	183.94
445.917	143.94
446.025	10.94
446.132	173.94
446.24	189.94
446.348	122.94
446.456	26.94
446.564	64.94
446.671	137.94
446.779	71.94
446.887	37.94
446.995	132.94
447.102	104.94
447.21	94.94
447.318	129.94
447.426	61.94
447.533	327.94
447.641	1308.94
447.749	226.94
447.856	52.94
447.964	96.94
448.072	233.94
448.179	36.94
448.287	107.94
448.395	206.94
448.502	49.94
448.61	69.94
448.718	102.94
448.825	116.94
448.933	65.94
449.04	82.94
449.148	83.94
449.256	72.94
449.363	98.94
449.471	90.94
449.578	123.94
449.686	45.94
449.793	181.94
449.901	65.94
450.008	74.94
450.116	116.94
450.223	71.94
450.331	127.94
450.438	105.94
450.546	119.94
450.653	137.94
450.76	122.94
450.868	105.94
450.975	258.94
451.083	96.94
451.19	178.94
451.297	112.94
451.405	122.94
451.512	93.94
451.619	222.94
451.727	184.94
451.834	123.94
451.941	86.94
452.049	60.94
452.156	97.94
452.263	162.94
452.371	95.94
452.478	140.94
452.585	223.94
452.692	88.94
452.8	111.94
452.907	308.94
453.014	136.94
453.121	55.94
453.229	211.94
453.336	176.94
453.443	217.94
453.55	64.94
453.657	157.94
453.765	152.94
453.872	136.94
453.979	197.94
454.086	116.94
454.193	105.94
454.3	140.94
454.407	234.94
454.514	199.94
454.621	145.94
454.729	71.94
454.836	100.94
454.943	133.94
455.05	171.94
455.157	212.94
455.264	131.94
455.371	187.94
455.478	146.94
455.585	361.94
455.692	202.94
455.799	271.94
455.906	94.94
456.013	147.94
456.12	105.94
456.227	109.94
456.334	163.94
456.44	227.94
456.547	94.94
456.654	85.94
456.761	150.94
456.868	163.94
456.975	177.94
457.082	153.94
457.189	84.94
457.296	115.94
457.402	121.94
457.509	53.94
457.616	129.94
457.723	272.94
457.83	164.94
457.936	90.94
458.043	364.94
458.15	193.94
458.257	185.94
458.363	165.94
458.47	156.94
458.577	184.94
458.684	81.94
458.79	194.94
458.897	141.94
459.004	189.94
459.11	150.94
459.217	153.94
459.324	171.94
459.43	258.94
459.537	420.94
459.644	188.94
459.75	139.94
459.857	538.94
459.964	222.94
460.07	232.94
460.177	238.94
460.283	276.94
460.39	334.94
460.496	276.94
460.603	274.94
460.71	196.94
460.816	160.94
460.923	207.94
461.029	202.94
461.136	202.94
461.242	269.94
461.349	252.94
461.455	183.94
461.562	542.94
461.668	288.94
461.774	197.94
461.881	326.94
461.987	272.94
462.094	220.94
462.2	256.94
462.307	306.94
462.413	226.94
462.519	169.94
462.626	407.94
462.732	289.94
462.838	283.94
462.945	381.94
463.051	293.94
463.157	213.94
463.264	282.94
463.37	311.94
463.476	266.94
463.583	304.94
463.689	267.94
463.795	237.94
463.901	317.94
464.008	390.94
464.114	222.94
464.22	209.94
464.326	276.94
464.433	197.94
464.539	171.94
464.645	180.94
464.751	412.94
464.857	218.94
464.963	160.94
465.07	306.94
465.176	258.94
465.282	219.94
465.388	342.94
465.494	118.94
465.6	184.94
465.706	159.94
465.812	135.94
465.918	220.94
466.024	165.94
466.131	216.94
466.237	160.94
466.343	87.94
466.449	139.94
466.555	111.94
466.661	98.94
466.767	160.94
466.873	144.94
466.979	282.94
467.085	191.94
467.191	157.94
467.296	101.94
467.402	124.94
467.508	212.94
467.614	243.94
467.72	117.94
467.826	142.94
467.932	139.94
468.038	87.94
468.144	170.94
468.25	92.94
468.355	77.94
468.461	177.94
468.567	68.94
468.673	94.94
468.779	133.94
468.885	152.94
468.99	71.94
469.096	95.94
469.202	280.94
469.308	173.94
469.413	195.94
469.519	202.94
469.625	86.94
469.731	136.94
469.836	140.94
469.942	298.94
470.048	160.94
470.153	155.94
470.259	182.94
470.365	218.94
470.47	169.94
470.576	210.94
470.682	132.94
470.787	131.94
470.893	145.94
470.999	184.94
471.104	179.94
471.21	111.94
471.315	50.94
471.421	79.94
471.527	276.94
471.632	254.94
471.738	180.94
471.843	94.94
471.949	213.94
472.054	137.94
472.16	97.94
472.265	161.94
472.371	95.94
472.476	123.94
472.582	229.94
472.687	80.94
472.793	60.94
472.898	115.94
473.003	127.94
473.109	58.94
473.214	58.94
473.32	129.94
473.425	162.94
473.53	164.94
473.636	99.94
473.741	78.94
473.847	79.94
473.952	182.94
474.057	173.94
474.163	139.94
474.268	86.94
474.373	214.94
474.478	61.94
474.584	58.94
474.689	181.94
474.794	131.94
474.9	351.94
475.005	129.94
475.11	256.94
475.215	101.94
475.321	139.94
475.426	302.94
475.531	204.94
475.636	90.94
475.741	125.94
475.846	204.94
475.952	321.94
476.057	232.94
476.162	198.94
476.267	285.94
476.372	452.94
476.477	117.94
476.582	210.94
476.687	86.94
476.793	133.94
476.898	86.94
477.003	121.94
477.108	161.94
477.213	81.94
477.318	128.94
477.423	233.94
477.528	215.94
477.633	233.94
477.738	205.94
477.843	99.94
477.948	117.94
478.053	135.94
478.158	121.94
478.263	168.94
478.368	148.94
478.473	244.94
478.578	180.94
478.682	78.94
478.787	259.94
478.892	139.94
478.997	213.94
479.102	167.94
479.207	79.94
479.312	237.94
479.417	184.94
479.521	147.94
479.626	215.94
479.731	176.94
479.836	173.94
479.941	283.94
480.045	238.94
480.15	235.94
480.255	172.94
480.36	143.94
480.465	233.94
480.569	320.94
480.674	188.94
480.779	132.94
480.883	137.94
480.988	160.94
481.093	188.94
481.197	197.94
481.302	156.94
481.407	202.94
481.511	2225.94
481.616	360.94
481.721	190.94
481.825	392.94
481.93	160.94
482.035	116.94
482.139	233.94
482.244	205.94
482.348	185.94
482.453	177.94
482.557	228.94
482.662	185.94
482.767	108.94
482.871	159.94
482.976	123.94
483.08	190.94
483.185	376.94
483.289	148.94
483.394	178.94
483.498	245.94
483.603	157.94
483.707	173.94
483.811	233.94
483.916	304.94
484.02	164.94
484.125	253.94
484.229	233.94
484.333	278.94
484.438	152.94
484.542	211.94
484.647	126.94
484.751	134.94
484.855	185.94
484.96	180.94
485.064	169.94
485.168	217.94
485.273	183.94
485.377	146.94
485.481	352.94
485.585	227.94
485.69	182.94
485.794	182.94
485.898	257.94
486.002	131.94
486.107	197.94
486.211	219.94
486.315	227.94
486.419	243.94
486.524	229.94
486.628	202.94
486.732	184.94
486.836	186.94
486.94	312.94
487.044	153.94
487.148	157.94
487.253	186.94
487.357	182.94
487.461	337.94
487.565	254.94
487.669	210.94
487.773	179.94
487.877	296.94
487.981	305.94
488.085	254.94
488.189	241.94
488.293	384.94
488.397	709.94
488.501	282.94
488.605	232.94
488.709	185.94
488.813	178.94
488.917	152.94
489.021	204.94
489.125	511.94
489.229	259.94
489.333	378.94
489.437	252.94
489.541	208.94
489.645	207.94
489.749	218.94
489.853	253.94
489.956	232.94
490.06	265.94
490.164	195.94
490.268	238.94
490.372	261.94
490.476	207.94
490.579	200.94
490.683	874.94
490.787	329.94
490.891	204.94
490.995	301.94
491.098	211.94
491.202	198.94
491.306	286.94
491.41	221.94
491.513	218.94
491.617	245.94
491.721	426.94
491.824	429.94
491.928	275.94
492.032	463.94
492.136	225.94
492.239	169.94
492.343	243.94
492.446	531.94
492.55	302.94
492.654	218.94
492.757	156.94
492.861	259.94
492.965	213.94
493.068	208.94
493.172	200.94
493.275	172.94
493.379	220.94
493.482	306.94
493.586	370.94
493.689	491.94
493.793	195.94
493.896	324.94
494	313.94
494.103	321.94
494.207	538.94
494.31	619.94
494.414	321.94
494.517	218.94
494.621	219.94
494.724	271.94
494.828	223.94
494.931	190.94
495.034	233.94
495.138	378.94
495.241	200.94
495.345	1032.94
495.448	421.94
495.551	242.94
495.655	261.94
495.758	233.94
495.861	203.94
495.965	209.94
496.068	277.94
496.171	268.94
496.274	176.94
496.378	256.94
496.481	260.94
496.584	238.94
496.687	272.94
496.791	289.94
496.894	267.94
496.997	257.94
497.1	260.94
497.204	238.94
497.307	201.94
497.41	391.94
497.513	433.94
497.616	241.94
497.719	256.94
497.823	259.94
497.926	222.94
498.029	290.94
498.132	251.94
498.235	253.94
498.338	303.94
498.441	381.94
498.544	269.94
498.647	334.94
498.75	493.94
498.853	525.94
498.956	374.94
499.059	598.94
499.163	380.94
499.266	378.94
499.369	420.94
499.471	460.94
499.574	573.94
499.677	554.94
499.78	572.94
499.883	570.94
499.986	659.94
500.089	691.94
500.192	685.94
500.295	685.94
500.398	698.94
500.501	659.94
500.604	612.94
500.707	585.94
500.809	561.94
500.912	627.94
501.015	606.94
501.118	468.94
501.221	555.94
501.324	445.94
501.426	435.94
501.529	394.94
501.632	397.94
501.735	367.94
501.837	290.94
501.94	296.94
502.043	328.94
502.146	317.94
502.248	316.94
502.351	266.94
502.454	313.94
502.557	226.94
502.659	267.94
502.762	275.94
502.865	196.94
502.967	172.94
503.07	284.94
503.173	276.94
503.275	215.94
503.378	250.94
503.48	193.94
503.583	280.94
503.686	289.94
503.788	501.94
503.891	245.94
503.993	425.94
504.096	264.94
504.198	247.94
504.301	206.94
504.403	282.94
504.506	202.94
504.608	224.94
504.711	264.94
504.813	277.94
504.916	270.94
505.018	186.94
505.121	208.94
505.223	251.94
505.326	216.94
505.428	357.94
505.531	221.94
505.633	212.94
505.735	141.94
505.838	147.94
505.94	209.94
506.042	168.94
506.145	113.94
506.247	211.94
506.35	123.94
506.452	263.94
506.554	217.94
506.656	202.94
506.759	162.94
506.861	185.94
506.963	158.94
507.066	274.94
507.168	265.94
507.27	148.94
507.372	127.94
507.475	146.94
507.577	188.94
507.679	177.94
507.781	126.94
507.883	169.94
507.986	136.94
508.088	196.94
508.19	170.94
508.292	203.94
508.394	203.94
508.496	123.94
508.598	165.94
508.701	225.94
508.803	156.94
508.905	121.94
509.007	172.94
509.109	270.94
509.211	178.94
509.313	174.94
509.415	177.94
509.517	185.94
509.619	125.94
509.721	233.94
509.823	127.94
509.925	285.94
510.027	207.94
510.129	189.94
510.231	186.94
510.333	116.94
510.435	153.94
510.537	192.94
510.639	229.94
510.741	190.94
510.843	223.94
510.945	186.94
511.047	281.94
511.148	201.94
511.25	138.94
511.352	239.94
511.454	95.94
511.556	207.94
511.658	156.94
511.76	236.94
511.861	279.94
511.963	136.94
512.065	185.94
512.167	148.94
512.268	322.94
512.37	232.94
512.472	113.94
512.574	205.94
512.676	267.94
512.777	148.94
512.879	104.94
512.981	113.94
513.082	169.94
513.184	172.94
513.286	602.94
513.387	289.94
513.489	306.94
513.591	237.94
513.692	308.94
513.794	214.94
513.896	79.94
513.997	140.94
514.099	106.94
514.2	177.94
514.302	186.94
514.404	153.94
514.505	100.94
514.607	223.94
514.708	195.94
514.81	210.94
514.911	214.94
515.013	258.94
515.114	171.94
515.216	147.94
515.317	210.94
515.419	144.94
515.52	192.94
515.622	185.94
515.723	251.94
515.825	293.94
515.926	209.94
516.027	211.94
516.129	147.94
516.23	178.94
516.332	290.94
516.433	205.94
516.534	288.94
516.636	213.94
516.737	184.94
516.838	1195.94
516.94	348.94
517.041	266.94
517.142	370.94
517.244	376.94
517.345	348.94
517.446	326.94
517.547	334.94
517.649	261.94
517.75	254.94
517.851	257.94
517.952	611.94
518.054	280.94
518.155	379.94
518.256	253.94
518.357	397.94
518.458	219.94
518.56	203.94
518.661	293.94
518.762	238.94
518.863	344.94
518.964	343.94
519.065	161.94
519.166	145.94
519.268	184.94
519.369	477.94
519.47	229.94
519.571	260.94
519.672	225.94
519.773	156.94
519.874	213.94
519.975	297.94
520.076	228.94
520.177	309.94
520.278	250.94
520.379	233.94
520.48	105.94
520.581	190.94
520.682	179.94
520.783	164.94
520.884	233.94
520.985	285.94
521.086	222.94
521.187	231.94
521.288	243.94
521.389	196.94
521.489	198.94
521.59	172.94
521.691	216.94
521.792	150.94
521.893	338.94
521.994	380.94
522.095	242.94
522.195	287.94
522.296	342.94
522.397	293.94
522.498	237.94
522.599	196.94
522.699	222.94
522.8	253.94
522.901	332.94
523.002	222.94
523.102	401.94
523.203	277.94
523.304	400.94
523.405	235.94
523.505	237.94
523.606	269.94
523.707	223.94
523.807	256.94
523.908	254.94
524.009	342.94
524.109	261.94
524.21	233.94
524.31	277.94
524.411	319.94
524.512	336.94
524.612	303.94
524.713	373.94
524.813	217.94
524.914	529.94
525.014	5022.94
525.115	674.94
525.216	240.94
525.316	212.94
525.417	264.94
525.517	246.94
525.618	238.94
525.718	172.94
525.819	200.94
525.919	290.94
526.019	174.94
526.12	287.94
526.22	233.94
526.321	174.94
526.421	117.94
526.522	230.94
526.622	152.94
526.722	156.94
526.823	253.94
526.923	271.94
527.023	316.94
527.124	226.94
527.224	311.94
527.324	162.94
527.425	272.94
527.525	204.94
527.625	172.94
527.726	205.94
527.826	325.94
527.926	195.94
528.026	249.94
528.127	230.94
528.227	186.94
528.327	270.94
528.427	214.94
528.528	268.94
528.628	255.94
528.728	251.94
528.828	340.94
528.928	292.94
529.029	224.94
529.129	343.94
529.229	256.94
529.329	235.94
529.429	353.94
529.529	351.94
529.629	274.94
529.729	261.94
529.829	431.94
529.93	194.94
530.03	302.94
530.13	315.94
530.23	272.94
530.33	366.94
530.43	245.94
530.53	286.94
530.63	267.94
530.73	213.94
530.83	167.94
530.93	188.94
531.03	231.94
531.13	312.94
531.23	197.94
531.33	250.94
531.429	363.94
531.529	400.94
531.629	267.94
531.729	204.94
531.829	131.94
531.929	189.94
532.029	267.94
532.129	212.94
532.229	260.94
532.328	223.94
532.428	252.94
532.528	172.94
532.628	141.94
532.728	241.94
532.827	148.94
532.927	269.94
533.027	233.94
533.127	335.94
533.227	275.94
533.326	298.94
533.426	156.94
533.526	336.94
533.625	404.94
533.725	520.94
533.825	292.94
533.924	203.94
534.024	199.94
534.124	182.94
534.223	281.94
534.323	668.94
534.423	252.94
534.522	248.94
534.622	217.94
534.722	218.94
534.821	232.94
534.921	192.94
535.02	165.94
535.12	285.94
535.219	321.94
535.319	325.94
535.419	272.94
535.518	215.94
535.618	307.94
535.717	320.94
535.817	185.94
535.916	147.94
536.016	275.94
536.115	169.94
536.215	204.94
536.314	187.94
536.413	135.94
536.513	182.94
536.612	203.94
536.712	87.94
536.811	181.94
536.91	172.94
537.01	131.94
537.109	196.94
537.209	181.94
537.308	181.94
537.407	160.94
537.507	197.94
537.606	164.94
537.705	220.94
537.805	191.94
537.904	164.94
538.003	240.94
538.102	306.94
538.202	243.94
538.301	257.94
538.4	237.94
538.499	244.94
538.599	233.94
538.698	400.94
538.797	205.94
538.896	301.94
538.995	218.94
539.095	202.94
539.194	450.94
539.293	228.94
539.392	217.94
539.491	249.94
539.59	193.94
539.689	357.94
539.789	329.94
539.888	130.94
539.987	67.94
540.086	202.94
540.185	226.94
540.284	277.94
540.383	223.94
540.482	216.94
540.581	206.94
540.68	204.94
540.779	274.94
540.878	208.94
540.977	279.94
541.076	260.94
541.175	250.94
541.274	434.94
541.373	313.94
541.472	319.94
541.571	172.94
541.67	1404.94
541.769	429.94
541.868	252.94
541.966	270.94
542.065	226.94
542.164	239.94
542.263	211.94
542.362	236.94
542.461	305.94
542.56	249.94
542.658	317.94
542.757	232.94
542.856	108.94
542.955	144.94
543.054	205.94
543.152	341.94
543.251	240.94
543.35	409.94
543.449	257.94
543.547	206.94
543.646	218.94
543.745	275.94
543.843	301.94
543.942	284.94
544.041	243.94
544.14	280.94
544.238	222.94
544.337	462.94
544.436	250.94
544.534	352.94
544.633	329.94
544.731	245.94
544.83	275.94
544.929	263.94
545.027	239.94
545.126	170.94
545.224	292.94
545.323	232.94
545.421	223.94
545.52	253.94
545.619	331.94
545.717	238.94
545.816	333.94
545.914	357.94
546.013	452.94
546.111	403.94
546.209	257.94
546.308	249.94
546.406	214.94
546.505	450.94
546.603	330.94
546.702	215.94
546.8	220.94
546.899	266.94
546.997	250.94
547.095	257.94
547.194	345.94
547.292	275.94
547.39	349.94
547.489	280.94
547.587	552.94
547.685	276.94
547.784	493.94
547.882	371.94
547.98	221.94
548.079	308.94
548.177	262.94
548.275	188.94
548.373	370.94
548.472	256.94
548.57	267.94
548.668	317.94
548.766	217.94
548.864	347.94
548.963	236.94
549.061	386.94
549.159	257.94
549.257	282.94
549.355	242.94
549.454	228.94
549.552	268.94
549.65	261.94
549.748	227.94
549.846	222.94
549.944	197.94
550.042	228.94
550.14	270.94
550.238	218.94
550.336	208.94
550.434	217.94
550.532	227.94
550.631	307.94
550.729	322.94
550.827	263.94
550.925	212.94
551.023	280.94
551.121	194.94
551.218	211.94
551.316	187.94
551.414	207.94
551.512	123.94
551.61	280.94
551.708	349.94
551.806	284.94
551.904	172.94
552.002	217.94
552.1	264.94
552.198	173.94
552.296	392.94
552.393	377.94
552.491	402.94
552.589	324.94
552.687	411.94
552.785	292.94
552.882	427.94
552.98	521.94
553.078	412.94
553.176	370.94
553.274	283.94
553.371	271.94
553.469	285.94
553.567	316.94
553.665	269.94
553.762	666.94
553.86	411.94
553.958	329.94
554.055	309.94
554.153	354.94
554.251	316.94
554.348	293.94
554.446	234.94
554.544	322.94
554.641	563.94
554.739	214.94
554.837	294.94
554.934	259.94
555.032	253.94
555.129	203.94
555.227	474.94
555.324	1518.94
555.422	413.94
555.519	329.94
555.617	298.94
555.715	184.94
555.812	1949.94
555.91	354.94
556.007	267.94
556.105	252.94
556.202	251.94
556.299	171.94
556.397	241.94
556.494	221.94
556.592	212.94
556.689	305.94
556.787	272.94
556.884	193.94
556.981	219.94
557.079	254.94
557.176	242.94
557.273	233.94
557.371	337.94
557.468	234.94
557.566	261.94
557.663	211.94
557.76	259.94
557.857	155.94
557.955	254.94
558.052	363.94
558.149	368.94
558.247	370.94
558.344	233.94
558.441	177.94
558.538	237.94
558.636	278.94
558.733	225.94
558.83	237.94
558.927	237.94
559.024	240.94
559.122	170.94
559.219	214.94
559.316	315.94
559.413	342.94
559.51	237.94
559.607	253.94
559.704	237.94
559.801	256.94
559.899	250.94
559.996	498.94
560.093	243.94
560.19	177.94
560.287	319.94
560.384	404.94
560.481	215.94
560.578	266.94
560.675	192.94
560.772	279.94
560.869	296.94
560.966	350.94
561.063	182.94
561.16	370.94
561.257	268.94
561.354	213.94
561.451	217.94
561.548	294.94
561.645	423.94
561.742	198.94
561.838	220.94
561.935	190.94
562.032	227.94
562.129	300.94
562.226	228.94
562.323	181.94
562.42	261.94
562.516	222.94
562.613	192.94
562.71	239.94
562.807	1020.94
562.904	234.94
563	204.94
563.097	230.94
563.194	221.94
563.291	182.94
563.387	239.94
563.484	226.94
563.581	242.94
563.678	171.94
563.774	594.94
563.871	244.94
563.968	234.94
564.064	265.94
564.161	209.94
564.258	194.94
564.354	325.94
564.451	288.94
564.548	263.94
564.644	265.94
564.741	189.94
564.837	154.94
564.934	235.94
565.031	256.94
565.127	209.94
565.224	258.94
565.32	430.94
565.417	223.94
565.513	258.94
565.61	338.94
565.706	336.94
565.803	311.94
565.899	331.94
565.996	301.94
566.092	268.94
566.189	282.94
566.285	302.94
566.382	287.94
566.478	366.94
566.574	442.94
566.671	297.94
566.767	324.94
566.864	368.94
566.96	370.94
567.056	305.94
567.153	512.94
567.249	432.94
567.345	489.94
567.442	520.94
567.538	457.94
567.634	393.94
567.731	436.94
567.827	453.94
567.923	454.94
568.019	324.94
568.116	351.94
568.212	242.94
568.308	356.94
568.404	357.94
568.501	302.94
568.597	341.94
568.693	282.94
568.789	902.94
568.885	259.94
568.982	278.94
569.078	264.94
569.174	278.94
569.27	185.94
569.366	342.94
569.462	274.94
569.558	179.94
569.655	301.94
569.751	172.94
569.847	181.94
569.943	205.94
570.039	146.94
570.135	626.94
570.231	207.94
570.327	403.94
570.423	299.94
570.519	245.94
570.615	232.94
570.711	289.94
570.807	273.94
570.903	249.94
570.999	224.94
571.095	259.94
571.191	240.94
571.287	270.94
571.383	290.94
571.479	223.94
571.574	368.94
571.67	203.94
571.766	378.94
571.862	265.94
571.958	165.94
572.054	275.94
572.15	207.94
572.246	111.94
572.341	265.94
572.437	240.94
572.533	253.94
572.629	197.94
572.725	204.94
572.82	191.94
572.916	290.94
573.012	208.94
573.108	319.94
573.203	185.94
573.299	174.94
573.395	196.94
573.49	134.94
573.586	122.94
573.682	191.94
573.778	309.94
573.873	121.94
573.969	127.94
574.065	206.94
574.16	179.94
574.256	190.94
574.351	266.94
574.447	136.94
574.543	150.94
574.638	300.94
574.734	178.94
574.829	390.94
574.925	213.94
575.02	193.94
575.116	123.94
575.212	149.94
575.307	357.94
575.403	165.94
575.498	211.94
575.594	224.94
575.689	217.94
575.784	202.94
575.88	225.94
575.975	255.94
576.071	145.94
576.166	157.94
576.262	202.94
576.357	108.94
576.452	326.94
576.548	241.94
576.643	174.94
576.739	207.94
576.834	250.94
576.929	213.94
577.025	844.94
577.12	251.94
577.215	135.94
577.311	179.94
577.406	276.94
577.501	369.94
577.597	108.94
577.692	309.94
577.787	305.94
577.882	180.94
577.978	195.94
578.073	185.94
578.168	83.94
578.263	100.94
578.358	163.94
578.454	131.94
578.549	120.94
578.644	153.94
578.739	215.94
578.834	156.94
578.929	139.94
579.025	158.94
579.12	227.94
579.215	415.94
579.31	394.94
579.405	146.94
579.5	203.94
579.595	193.94
579.69	89.94
579.785	135.94
579.88	138.94
579.975	178.94
580.07	128.94
580.165	159.94
580.26	291.94
580.355	177.94
580.45	156.94
580.545	161.94
580.64	160.94
580.735	244.94
580.83	242.94
580.925	125.94
581.02	94.94
581.115	97.94
581.21	72.94
581.305	130.94
581.4	151.94
581.495	155.94
581.589	134.94
581.684	102.94
581.779	279.94
581.874	169.94
581.969	208.94
582.064	140.94
582.158	140.94
582.253	80.94
582.348	156.94
582.443	205.94
582.537	155.94
582.632	323.94
582.727	221.94
582.822	111.94
582.916	115.94
583.011	166.94
583.106	171.94
583.201	113.94
583.295	172.94
583.39	86.94
583.485	90.94
583.579	1998.94
583.674	381.94
583.769	349.94
583.863	123.94
583.958	181.94
584.052	48.94
584.147	103.94
584.242	138.94
584.336	118.94
584.431	329.94
584.525	121.94
584.62	279.94
584.714	193.94
584.809	187.94
584.903	222.94
584.998	168.94
585.092	91.94
585.187	138.94
585.281	92.94
585.376	122.94
585.47	218.94
585.565	147.94
585.659	46.94
585.754	136.94
585.848	177.94
585.942	103.94
586.037	125.94
586.131	1453.94
586.226	227.94
586.32	187.94
586.414	76.94
586.509	231.94
586.603	176.94
586.697	162.94
586.792	36.94
586.886	68.94
586.98	262.94
587.075	96.94
587.169	93.94
587.263	314.94
587.357	177.94
587.452	66.94
587.546	198.94
587.64	100.94
587.734	112.94
587.829	115.94
587.923	169.94
588.017	128.94
588.111	92.94
588.205	252.94
588.3	87.94
588.394	38.94
588.488	61.94
588.582	154.94
588.676	133.94
588.77	324.94
588.864	945.94
588.958	710.94
589.052	324.94
589.147	343.94
589.241	222.94
589.335	209.94
589.429	564.94
589.523	576.94
589.617	443.94
589.711	275.94
589.805	211.94
589.899	222.94
589.993	110.94
590.087	97.94
590.181	56.94
590.275	130.94
590.369	124.94
590.462	24.94
590.556	16.94
590.65	70.94
590.744	62.94
590.838	47.94
590.932	69.94
591.026	171.94
591.12	267.94
591.214	121.94
591.307	176.94
591.401	130.94
591.495	180.94
591.589	138.94
591.683	90.94
591.777	160.94
591.87	509.94
591.964	161.94
592.058	69.94
592.152	195.94
592.245	184.94
592.339	206.94
592.433	250.94
592.527	241.94
592.62	87.94
592.714	162.94
592.808	262.94
592.901	194.94
592.995	101.94
593.089	391.94
593.182	217.94
593.276	110.94
593.37	101.94
593.463	111.94
593.557	129.94
593.65	117.94
593.744	186.94
593.837	201.94
593.931	96.94
594.025	3170.94
594.118	444.94
594.212	104.94
594.305	124.94
594.399	181.94
594.492	493.94
594.586	140.94
594.679	132.94
594.773	111.94
594.866	187.94
594.96	217.94
595.053	92.94
595.146	110.94
595.24	146.94
595.333	73.94
595.427	43.94
595.52	85.94
595.614	258.94
595.707	137.94
595.8	149.94
595.894	161.94
595.987	60.94
596.08	66.94
596.174	520.94
596.267	213.94
596.36	229.94
596.454	317.94
596.547	163.94
596.64	73.94
596.733	50.94
596.827	154.94
596.92	128.94
597.013	51.94
597.106	39.94
597.2	42.94
597.293	58.94
597.386	391.94
597.479	137.94
597.572	133.94
597.666	104.94
597.759	87.94
597.852	188.94
597.945	66.94
598.038	107.94
598.131	86.94
598.224	116.94
598.317	182.94
598.411	124.94
598.504	62.94
598.597	164.94
598.69	82.94
598.783	61.94
598.876	196.94
598.969	93.94
599.062	13.94
599.155	195.94
599.248	73.94
599.341	65.94
599.434	74.94
599.527	170.94
599.62	74.94
599.713	44.94
599.806	192.94
599.899	236.94
599.991	54.94
600.084	382.94
600.177	53.94
600.27	82.94
600.363	270.94
600.456	94.94
600.549	119.94
600.642	74.94
600.734	77.94
600.827	75.94
600.92	208.94
601.013	147.94
601.106	167.94
601.199	105.94
601.291	103.94
601.384	57.94
601.477	289.94
601.57	229.94
601.662	70.94
601.755	93.94
601.848	125.94
601.94	81.94
602.033	194.94
602.126	110.94
602.219	138.94
602.311	212.94
602.404	103.94
602.497	143.94
602.589	28.94
602.682	145.94
602.774	156.94
602.867	98.94
602.96	76.94
603.052	104.94
603.145	109.94
603.237	132.94
603.33	81.94
603.422	249.94
603.515	73.94
603.608	135.94
603.7	159.94
603.793	83.94
603.885	132.94
603.978	84.94
604.07	78.94
604.163	46.94
604.255	126.94
604.347	52.94
604.44	15.94
604.532	105.94
604.625	136.94
604.717	49.94
604.81	145.94
604.902	138.94
604.994	27.94
605.087	131.94
605.179	106.94
605.271	137.94
605.364	86.94
605.456	160.94
605.548	95.94
605.641	92.94
605.733	60.94
605.825	158.94
605.918	42.94
606.01	256.94
606.102	608.94
606.194	110.94
606.287	233.94
606.379	96.94
606.471	120.94
606.563	152.94
606.655	156.94
606.748	212.94
606.84	97.94
606.932	147.94
607.024	122.94
607.116	24.94
607.208	49.94
607.301	174.94
607.393	94.94
607.485	123.94
607.577	161.94
607.669	219.94
607.761	151.94
607.853	337.94
607.945	99.94
608.037	18.94
608.129	90.94
608.221	103.94
608.313	61.94
608.405	167.94
608.497	149.94
608.589	58.94
608.681	75.94
608.773	212.94
608.865	126.94
608.957	108.94
609.049	95.94
609.141	239.94
609.233	74.94
609.325	25.94
609.417	100.94
609.509	157.94
609.601	229.94
609.693	231.94
609.784	85.94
609.876	94.94
609.968	205.94
610.06	2271.94
610.152	357.94
610.244	346.94
610.335	140.94
610.427	82.94
610.519	144.94
610.611	198.94
610.702	81.94
610.794	124.94
610.886	225.94
610.978	138.94
611.069	657.94
611.161	216.94
611.253	213.94
611.344	81.94
611.436	25.94
611.528	171.94
611.62	43.94
611.711	108.94
611.803	112.94
611.894	42.94
611.986	68.94
612.078	168.94
612.169	105.94
612.261	69.94
612.352	91.94
612.444	58.94
612.536	181.94
612.627	92.94
612.719	64.94
612.81	50.94
612.902	33.94
612.993	115.94
613.085	59.94
613.176	13.94
613.268	101.94
613.359	51.94
613.451	31.94
613.542	139.94
613.634	47.94
613.725	75.94
613.816	175.94
613.908	88.94
613.999	57.94
614.091	-32.06
614.182	20.94
614.273	73.94
614.365	17.94
614.456	-2.06
614.547	10.94
614.639	-13.06
614.73	42.94
614.821	111.94
614.913	-18.06
615.004	-69.06
615.095	-10.06
615.187	-40.06
