Data from 28g_HRC06701__37__403.txt Node

Date: Thu Apr 18 02:21:08 CDT 2024
User: Estudiantes 2
Spectrometer: HR+C0670
Trigger mode: 4
Integration Time (sec): 1.000000E0
Scans to average: 1
Electric dark correction enabled: true
Nonlinearity correction enabled: false
Boxcar width: 0
XAxis mode: Wavelengths
Number of Pixels in Spectrum: 2048
>>>>>Begin Spectral Data<<<<<
407.81	-141.88
407.921	-141.88
408.032	-141.88
408.143	-143.88
408.254	-132.88
408.365	52.12
408.476	284.12
408.587	-47.88
408.699	-13.88
408.81	9.12
408.921	-65.88
409.032	-54.88
409.143	92.12
409.254	-21.88
409.365	91.12
409.476	5.12
409.587	19.12
409.698	70.12
409.809	83.12
409.92	-23.88
410.031	-38.88
410.142	42.12
410.253	41.12
410.364	26.12
410.475	-46.88
410.585	88.12
410.696	52.12
410.807	40.12
410.918	43.12
411.029	120.12
411.14	66.12
411.251	50.12
411.362	151.12
411.472	85.12
411.583	83.12
411.694	156.12
411.805	56.12
411.916	60.12
412.026	169.12
412.137	75.12
412.248	48.12
412.359	45.12
412.47	50.12
412.58	4.12
412.691	89.12
412.802	127.12
412.912	60.12
413.023	91.12
413.134	69.12
413.245	175.12
413.355	50.12
413.466	51.12
413.577	79.12
413.687	113.12
413.798	2.12
413.909	134.12
414.019	52.12
414.13	89.12
414.24	64.12
414.351	98.12
414.462	236.12
414.572	170.12
414.683	91.12
414.793	35.12
414.904	433.12
415.014	89.12
415.125	-7.88
415.235	88.12
415.346	197.12
415.456	201.12
415.567	65.12
415.677	110.12
415.788	130.12
415.898	54.12
416.009	89.12
416.119	87.12
416.23	50.12
416.34	76.12
416.45	79.12
416.561	842.12
416.671	216.12
416.782	29.12
416.892	8.12
417.002	113.12
417.113	135.12
417.223	42.12
417.333	24.12
417.444	96.12
417.554	71.12
417.664	120.12
417.775	43.12
417.885	85.12
417.995	76.12
418.106	171.12
418.216	131.12
418.326	83.12
418.436	56.12
418.547	100.12
418.657	32.12
418.767	134.12
418.877	85.12
418.987	60.12
419.098	49.12
419.208	124.12
419.318	161.12
419.428	97.12
419.538	49.12
419.648	126.12
419.759	107.12
419.869	158.12
419.979	91.12
420.089	129.12
420.199	47.12
420.309	186.12
420.419	137.12
420.529	99.12
420.639	650.12
420.749	164.12
420.859	125.12
420.969	121.12
421.079	340.12
421.189	187.12
421.299	140.12
421.409	81.12
421.519	175.12
421.629	180.12
421.739	114.12
421.849	21.12
421.959	49.12
422.069	160.12
422.179	81.12
422.289	34.12
422.399	82.12
422.509	238.12
422.619	3512.12
422.729	464.12
422.838	88.12
422.948	112.12
423.058	60.12
423.168	133.12
423.278	83.12
423.388	90.12
423.498	156.12
423.607	100.12
423.717	354.12
423.827	375.12
423.937	116.12
424.046	154.12
424.156	174.12
424.266	117.12
424.376	295.12
424.485	229.12
424.595	133.12
424.705	53.12
424.815	92.12
424.924	508.12
425.034	173.12
425.144	17.12
425.253	113.12
425.363	158.12
425.473	117.12
425.582	21.12
425.692	124.12
425.801	46.12
425.911	211.12
426.021	177.12
426.13	184.12
426.24	300.12
426.349	245.12
426.459	122.12
426.568	64.12
426.678	192.12
426.787	158.12
426.897	53.12
427.006	77.12
427.116	216.12
427.225	112.12
427.335	164.12
427.444	128.12
427.554	145.12
427.663	131.12
427.773	88.12
427.882	173.12
427.992	58.12
428.101	121.12
428.21	142.12
428.32	88.12
428.429	16.12
428.539	403.12
428.648	74.12
428.757	153.12
428.867	171.12
428.976	226.12
429.085	121.12
429.195	111.12
429.304	131.12
429.413	179.12
429.523	159.12
429.632	171.12
429.741	106.12
429.85	72.12
429.96	166.12
430.069	89.12
430.178	104.12
430.287	431.12
430.397	111.12
430.506	142.12
430.615	123.12
430.724	161.12
430.833	100.12
430.943	107.12
431.052	155.12
431.161	63.12
431.27	162.12
431.379	142.12
431.488	200.12
431.597	175.12
431.706	194.12
431.816	133.12
431.925	140.12
432.034	130.12
432.143	190.12
432.252	119.12
432.361	249.12
432.47	162.12
432.579	160.12
432.688	133.12
432.797	219.12
432.906	90.12
433.015	172.12
433.124	577.12
433.233	192.12
433.342	234.12
433.451	162.12
433.56	139.12
433.669	96.12
433.778	116.12
433.886	223.12
433.995	118.12
434.104	315.12
434.213	210.12
434.322	78.12
434.431	213.12
434.54	144.12
434.649	239.12
434.757	173.12
434.866	180.12
434.975	272.12
435.084	240.12
435.193	200.12
435.301	470.12
435.41	525.12
435.519	618.12
435.628	227.12
435.737	128.12
435.845	139.12
435.954	121.12
436.063	146.12
436.171	136.12
436.28	209.12
436.389	260.12
436.498	156.12
436.606	165.12
436.715	337.12
436.823	115.12
436.932	88.12
437.041	178.12
437.149	153.12
437.258	123.12
437.367	130.12
437.475	88.12
437.584	330.12
437.692	160.12
437.801	1620.12
437.91	340.12
438.018	89.12
438.127	114.12
438.235	201.12
438.344	105.12
438.452	216.12
438.561	90.12
438.669	98.12
438.778	114.12
438.886	105.12
438.995	101.12
439.103	127.12
439.212	130.12
439.32	109.12
439.428	104.12
439.537	195.12
439.645	181.12
439.754	156.12
439.862	171.12
439.97	133.12
440.079	119.12
440.187	93.12
440.295	236.12
440.404	117.12
440.512	149.12
440.62	208.12
440.729	181.12
440.837	211.12
440.945	844.12
441.054	232.12
441.162	137.12
441.27	252.12
441.378	112.12
441.487	127.12
441.595	526.12
441.703	247.12
441.811	197.12
441.92	138.12
442.028	107.12
442.136	161.12
442.244	186.12
442.352	210.12
442.461	89.12
442.569	84.12
442.677	173.12
442.785	162.12
442.893	127.12
443.001	130.12
443.109	87.12
443.217	90.12
443.325	119.12
443.434	643.12
443.542	364.12
443.65	109.12
443.758	315.12
443.866	152.12
443.974	410.12
444.082	236.12
444.19	132.12
444.298	197.12
444.406	268.12
444.514	158.12
444.622	203.12
444.73	237.12
444.838	218.12
444.946	198.12
445.054	140.12
445.161	182.12
445.269	107.12
445.377	149.12
445.485	203.12
445.593	174.12
445.701	382.12
445.809	282.12
445.917	254.12
446.025	94.12
446.132	243.12
446.24	261.12
446.348	180.12
446.456	88.12
446.564	145.12
446.671	177.12
446.779	131.12
446.887	147.12
446.995	147.12
447.102	205.12
447.21	230.12
447.318	172.12
447.426	117.12
447.533	394.12
447.641	1446.12
447.749	325.12
447.856	123.12
447.964	172.12
448.072	225.12
448.179	141.12
448.287	247.12
448.395	185.12
448.502	97.12
448.61	188.12
448.718	113.12
448.825	168.12
448.933	157.12
449.04	120.12
449.148	152.12
449.256	124.12
449.363	212.12
449.471	161.12
449.578	216.12
449.686	146.12
449.793	228.12
449.901	135.12
450.008	194.12
450.116	183.12
450.223	122.12
450.331	227.12
450.438	213.12
450.546	174.12
450.653	208.12
450.76	251.12
450.868	191.12
450.975	340.12
451.083	220.12
451.19	198.12
451.297	179.12
451.405	237.12
451.512	162.12
451.619	296.12
451.727	302.12
451.834	202.12
451.941	177.12
452.049	189.12
452.156	210.12
452.263	212.12
452.371	157.12
452.478	226.12
452.585	309.12
452.692	165.12
452.8	254.12
452.907	313.12
453.014	198.12
453.121	147.12
453.229	321.12
453.336	263.12
453.443	315.12
453.55	202.12
453.657	209.12
453.765	264.12
453.872	273.12
453.979	276.12
454.086	170.12
454.193	255.12
454.3	196.12
454.407	302.12
454.514	305.12
454.621	249.12
454.729	205.12
454.836	220.12
454.943	261.12
455.05	266.12
455.157	277.12
455.264	219.12
455.371	253.12
455.478	219.12
455.585	1456.12
455.692	360.12
455.799	367.12
455.906	239.12
456.013	235.12
456.12	168.12
456.227	203.12
456.334	313.12
456.44	306.12
456.547	229.12
456.654	235.12
456.761	260.12
456.868	312.12
456.975	290.12
457.082	220.12
457.189	164.12
457.296	235.12
457.402	225.12
457.509	176.12
457.616	246.12
457.723	445.12
457.83	237.12
457.936	203.12
458.043	545.12
458.15	304.12
458.257	302.12
458.363	301.12
458.47	267.12
458.577	309.12
458.684	226.12
458.79	321.12
458.897	280.12
459.004	343.12
459.11	325.12
459.217	284.12
459.324	340.12
459.43	457.12
459.537	588.12
459.644	351.12
459.75	310.12
459.857	644.12
459.964	370.12
460.07	390.12
460.177	404.12
460.283	391.12
460.39	510.12
460.496	473.12
460.603	420.12
460.71	386.12
460.816	332.12
460.923	327.12
461.029	373.12
461.136	390.12
461.242	350.12
461.349	371.12
461.455	330.12
461.562	677.12
461.668	428.12
461.774	346.12
461.881	548.12
461.987	379.12
462.094	390.12
462.2	433.12
462.307	462.12
462.413	377.12
462.519	373.12
462.626	573.12
462.732	441.12
462.838	481.12
462.945	528.12
463.051	481.12
463.157	439.12
463.264	465.12
463.37	509.12
463.476	489.12
463.583	489.12
463.689	371.12
463.795	397.12
463.901	485.12
464.008	591.12
464.114	414.12
464.22	386.12
464.326	490.12
464.433	333.12
464.539	403.12
464.645	402.12
464.751	556.12
464.857	401.12
464.963	318.12
465.07	431.12
465.176	381.12
465.282	338.12
465.388	507.12
465.494	272.12
465.6	345.12
465.706	324.12
465.812	239.12
465.918	319.12
466.024	290.12
466.131	301.12
466.237	249.12
466.343	227.12
466.449	184.12
466.555	207.12
466.661	245.12
466.767	237.12
466.873	237.12
466.979	431.12
467.085	335.12
467.191	261.12
467.296	214.12
467.402	258.12
467.508	275.12
467.614	367.12
467.72	273.12
467.826	206.12
467.932	234.12
468.038	209.12
468.144	249.12
468.25	216.12
468.355	189.12
468.461	286.12
468.567	151.12
468.673	237.12
468.779	289.12
468.885	212.12
468.99	147.12
469.096	227.12
469.202	326.12
469.308	219.12
469.413	266.12
469.519	256.12
469.625	204.12
469.731	247.12
469.836	243.12
469.942	373.12
470.048	275.12
470.153	278.12
470.259	229.12
470.365	309.12
470.47	310.12
470.576	254.12
470.682	227.12
470.787	205.12
470.893	214.12
470.999	222.12
471.104	293.12
471.21	238.12
471.315	133.12
471.421	149.12
471.527	438.12
471.632	271.12
471.738	221.12
471.843	204.12
471.949	233.12
472.054	221.12
472.16	201.12
472.265	251.12
472.371	193.12
472.476	212.12
472.582	328.12
472.687	191.12
472.793	141.12
472.898	233.12
473.003	180.12
473.109	144.12
473.214	149.12
473.32	193.12
473.425	241.12
473.53	228.12
473.636	173.12
473.741	115.12
473.847	156.12
473.952	240.12
474.057	252.12
474.163	289.12
474.268	166.12
474.373	217.12
474.478	117.12
474.584	163.12
474.689	205.12
474.794	201.12
474.9	461.12
475.005	214.12
475.11	313.12
475.215	151.12
475.321	229.12
475.426	335.12
475.531	337.12
475.636	222.12
475.741	125.12
475.846	305.12
475.952	403.12
476.057	301.12
476.162	252.12
476.267	399.12
476.372	504.12
476.477	192.12
476.582	322.12
476.687	219.12
476.793	247.12
476.898	193.12
477.003	282.12
477.108	178.12
477.213	162.12
477.318	233.12
477.423	239.12
477.528	314.12
477.633	346.12
477.738	237.12
477.843	178.12
477.948	212.12
478.053	247.12
478.158	181.12
478.263	242.12
478.368	249.12
478.473	282.12
478.578	286.12
478.682	218.12
478.787	256.12
478.892	233.12
478.997	283.12
479.102	266.12
479.207	218.12
479.312	341.12
479.417	307.12
479.521	226.12
479.626	309.12
479.731	329.12
479.836	238.12
479.941	380.12
480.045	366.12
480.15	317.12
480.255	282.12
480.36	234.12
480.465	319.12
480.569	390.12
480.674	290.12
480.779	261.12
480.883	201.12
480.988	276.12
481.093	280.12
481.197	266.12
481.302	259.12
481.407	325.12
481.511	1829.12
481.616	407.12
481.721	276.12
481.825	488.12
481.93	226.12
482.035	252.12
482.139	366.12
482.244	263.12
482.348	249.12
482.453	314.12
482.557	286.12
482.662	277.12
482.767	216.12
482.871	197.12
482.976	233.12
483.08	274.12
483.185	433.12
483.289	216.12
483.394	259.12
483.498	364.12
483.603	274.12
483.707	287.12
483.811	356.12
483.916	351.12
484.02	245.12
484.125	390.12
484.229	332.12
484.333	369.12
484.438	265.12
484.542	324.12
484.647	224.12
484.751	280.12
484.855	301.12
484.96	272.12
485.064	317.12
485.168	368.12
485.273	262.12
485.377	302.12
485.481	553.12
485.585	264.12
485.69	276.12
485.794	326.12
485.898	382.12
486.002	300.12
486.107	338.12
486.211	390.12
486.315	351.12
486.419	401.12
486.524	370.12
486.628	286.12
486.732	263.12
486.836	345.12
486.94	415.12
487.044	335.12
487.148	280.12
487.253	291.12
487.357	312.12
487.461	486.12
487.565	385.12
487.669	334.12
487.773	301.12
487.877	472.12
487.981	378.12
488.085	381.12
488.189	341.12
488.293	477.12
488.397	824.12
488.501	405.12
488.605	360.12
488.709	333.12
488.813	344.12
488.917	327.12
489.021	326.12
489.125	576.12
489.229	403.12
489.333	446.12
489.437	374.12
489.541	397.12
489.645	288.12
489.749	341.12
489.853	436.12
489.956	338.12
490.06	354.12
490.164	383.12
490.268	360.12
490.372	385.12
490.476	362.12
490.579	391.12
490.683	978.12
490.787	433.12
490.891	409.12
490.995	386.12
491.098	378.12
491.202	352.12
491.306	403.12
491.41	365.12
491.513	308.12
491.617	423.12
491.721	531.12
491.824	651.12
491.928	404.12
492.032	561.12
492.136	417.12
492.239	320.12
492.343	343.12
492.446	706.12
492.55	446.12
492.654	374.12
492.757	320.12
492.861	450.12
492.965	402.12
493.068	351.12
493.172	380.12
493.275	377.12
493.379	350.12
493.482	472.12
493.586	525.12
493.689	579.12
493.793	304.12
493.896	450.12
494	447.12
494.103	459.12
494.207	669.12
494.31	804.12
494.414	384.12
494.517	366.12
494.621	306.12
494.724	352.12
494.828	325.12
494.931	354.12
495.034	354.12
495.138	508.12
495.241	319.12
495.345	1149.12
495.448	513.12
495.551	354.12
495.655	389.12
495.758	328.12
495.861	346.12
495.965	341.12
496.068	401.12
496.171	414.12
496.274	340.12
496.378	384.12
496.481	345.12
496.584	380.12
496.687	432.12
496.791	399.12
496.894	411.12
496.997	409.12
497.1	394.12
497.204	403.12
497.307	338.12
497.41	509.12
497.513	603.12
497.616	408.12
497.719	360.12
497.823	381.12
497.926	384.12
498.029	490.12
498.132	448.12
498.235	430.12
498.338	467.12
498.441	466.12
498.544	415.12
498.647	523.12
498.75	595.12
498.853	682.12
498.956	533.12
499.059	732.12
499.163	578.12
499.266	620.12
499.369	706.12
499.471	666.12
499.574	816.12
499.677	770.12
499.78	764.12
499.883	812.12
499.986	904.12
500.089	924.12
500.192	928.12
500.295	979.12
500.398	974.12
500.501	909.12
500.604	843.12
500.707	825.12
500.809	767.12
500.912	837.12
501.015	888.12
501.118	713.12
501.221	722.12
501.324	649.12
501.426	611.12
501.529	514.12
501.632	510.12
501.735	469.12
501.837	458.12
501.94	428.12
502.043	452.12
502.146	439.12
502.248	457.12
502.351	414.12
502.454	403.12
502.557	378.12
502.659	450.12
502.762	373.12
502.865	315.12
502.967	321.12
503.07	394.12
503.173	420.12
503.275	319.12
503.378	369.12
503.48	317.12
503.583	426.12
503.686	449.12
503.788	572.12
503.891	347.12
503.993	594.12
504.096	331.12
504.198	318.12
504.301	320.12
504.403	349.12
504.506	330.12
504.608	326.12
504.711	359.12
504.813	385.12
504.916	353.12
505.018	329.12
505.121	246.12
505.223	329.12
505.326	311.12
505.428	409.12
505.531	328.12
505.633	357.12
505.735	255.12
505.838	247.12
505.94	269.12
506.042	259.12
506.145	197.12
506.247	336.12
506.35	268.12
506.452	301.12
506.554	309.12
506.656	343.12
506.759	259.12
506.861	293.12
506.963	276.12
507.066	320.12
507.168	331.12
507.27	254.12
507.372	255.12
507.475	243.12
507.577	280.12
507.679	262.12
507.781	190.12
507.883	275.12
507.986	215.12
508.088	249.12
508.19	271.12
508.292	258.12
508.394	269.12
508.496	196.12
508.598	248.12
508.701	276.12
508.803	236.12
508.905	171.12
509.007	286.12
509.109	305.12
509.211	300.12
509.313	248.12
509.415	242.12
509.517	227.12
509.619	188.12
509.721	299.12
509.823	205.12
509.925	368.12
510.027	269.12
510.129	278.12
510.231	261.12
510.333	277.12
510.435	226.12
510.537	293.12
510.639	311.12
510.741	250.12
510.843	281.12
510.945	238.12
511.047	343.12
511.148	271.12
511.25	216.12
511.352	290.12
511.454	156.12
511.556	329.12
511.658	280.12
511.76	254.12
511.861	331.12
511.963	237.12
512.065	215.12
512.167	219.12
512.268	395.12
512.37	333.12
512.472	217.12
512.574	321.12
512.676	328.12
512.777	183.12
512.879	206.12
512.981	211.12
513.082	226.12
513.184	227.12
513.286	698.12
513.387	350.12
513.489	386.12
513.591	299.12
513.692	344.12
513.794	263.12
513.896	205.12
513.997	249.12
514.099	159.12
514.2	251.12
514.302	340.12
514.404	225.12
514.505	194.12
514.607	289.12
514.708	262.12
514.81	282.12
514.911	327.12
515.013	382.12
515.114	272.12
515.216	258.12
515.317	298.12
515.419	234.12
515.52	275.12
515.622	300.12
515.723	256.12
515.825	413.12
515.926	318.12
516.027	242.12
516.129	222.12
516.23	285.12
516.332	347.12
516.433	305.12
516.534	397.12
516.636	327.12
516.737	241.12
516.838	1247.12
516.94	480.12
517.041	324.12
517.142	437.12
517.244	492.12
517.345	412.12
517.446	360.12
517.547	425.12
517.649	369.12
517.75	399.12
517.851	345.12
517.952	660.12
518.054	401.12
518.155	497.12
518.256	386.12
518.357	501.12
518.458	306.12
518.56	286.12
518.661	350.12
518.762	291.12
518.863	436.12
518.964	426.12
519.065	284.12
519.166	310.12
519.268	304.12
519.369	571.12
519.47	331.12
519.571	372.12
519.672	248.12
519.773	299.12
519.874	348.12
519.975	367.12
520.076	307.12
520.177	380.12
520.278	352.12
520.379	315.12
520.48	191.12
520.581	273.12
520.682	273.12
520.783	271.12
520.884	383.12
520.985	331.12
521.086	300.12
521.187	290.12
521.288	280.12
521.389	308.12
521.489	297.12
521.59	290.12
521.691	308.12
521.792	243.12
521.893	455.12
521.994	437.12
522.095	332.12
522.195	428.12
522.296	442.12
522.397	387.12
522.498	386.12
522.599	234.12
522.699	282.12
522.8	325.12
522.901	418.12
523.002	289.12
523.102	486.12
523.203	367.12
523.304	477.12
523.405	272.12
523.505	355.12
523.606	332.12
523.707	316.12
523.807	376.12
523.908	341.12
524.009	440.12
524.109	382.12
524.21	318.12
524.31	377.12
524.411	451.12
524.512	504.12
524.612	406.12
524.713	511.12
524.813	355.12
524.914	572.12
525.014	5243.12
525.115	842.12
525.216	298.12
525.316	273.12
525.417	374.12
525.517	312.12
525.618	323.12
525.718	274.12
525.819	313.12
525.919	344.12
526.019	260.12
526.12	416.12
526.22	297.12
526.321	270.12
526.421	235.12
526.522	279.12
526.622	265.12
526.722	244.12
526.823	345.12
526.923	326.12
527.023	411.12
527.124	311.12
527.224	410.12
527.324	246.12
527.425	417.12
527.525	256.12
527.625	272.12
527.726	307.12
527.826	397.12
527.926	280.12
528.026	304.12
528.127	317.12
528.227	294.12
528.327	397.12
528.427	340.12
528.528	308.12
528.628	354.12
528.728	331.12
528.828	433.12
528.928	405.12
529.029	326.12
529.129	361.12
529.229	385.12
529.329	348.12
529.429	447.12
529.529	445.12
529.629	371.12
529.729	373.12
529.829	463.12
529.93	294.12
530.03	404.12
530.13	364.12
530.23	362.12
530.33	470.12
530.43	352.12
530.53	377.12
530.63	380.12
530.73	322.12
530.83	229.12
530.93	290.12
531.03	340.12
531.13	342.12
531.23	297.12
531.33	397.12
531.429	408.12
531.529	518.12
531.629	384.12
531.729	271.12
531.829	226.12
531.929	301.12
532.029	373.12
532.129	316.12
532.229	314.12
532.328	352.12
532.428	225.12
532.528	252.12
532.628	323.12
532.728	330.12
532.827	220.12
532.927	408.12
533.027	349.12
533.127	428.12
533.227	335.12
533.326	383.12
533.426	251.12
533.526	427.12
533.625	484.12
533.725	559.12
533.825	397.12
533.924	290.12
534.024	213.12
534.124	242.12
534.223	359.12
534.323	708.12
534.423	310.12
534.522	319.12
534.622	267.12
534.722	241.12
534.821	330.12
534.921	306.12
535.02	244.12
535.12	363.12
535.219	446.12
535.319	397.12
535.419	337.12
535.518	291.12
535.618	347.12
535.717	383.12
535.817	237.12
535.916	249.12
536.016	356.12
536.115	283.12
536.215	310.12
536.314	236.12
536.413	185.12
536.513	288.12
536.612	275.12
536.712	133.12
536.811	267.12
536.91	229.12
537.01	211.12
537.109	282.12
537.209	280.12
537.308	220.12
537.407	234.12
537.507	303.12
537.606	205.12
537.705	286.12
537.805	292.12
537.904	167.12
538.003	276.12
538.102	334.12
538.202	290.12
538.301	343.12
538.4	329.12
538.499	328.12
538.599	289.12
538.698	489.12
538.797	307.12
538.896	351.12
538.995	276.12
539.095	280.12
539.194	449.12
539.293	273.12
539.392	319.12
539.491	301.12
539.59	256.12
539.689	375.12
539.789	388.12
539.888	189.12
539.987	144.12
540.086	250.12
540.185	285.12
540.284	328.12
540.383	311.12
540.482	214.12
540.581	241.12
540.68	236.12
540.779	307.12
540.878	266.12
540.977	367.12
541.076	318.12
541.175	309.12
541.274	519.12
541.373	432.12
541.472	306.12
541.571	237.12
541.67	1629.12
541.769	452.12
541.868	309.12
541.966	378.12
542.065	317.12
542.164	287.12
542.263	258.12
542.362	304.12
542.461	336.12
542.56	350.12
542.658	386.12
542.757	268.12
542.856	213.12
542.955	246.12
543.054	229.12
543.152	396.12
543.251	270.12
543.35	447.12
543.449	319.12
543.547	260.12
543.646	274.12
543.745	291.12
543.843	370.12
543.942	380.12
544.041	270.12
544.14	303.12
544.238	273.12
544.337	548.12
544.436	316.12
544.534	469.12
544.633	357.12
544.731	307.12
544.83	319.12
544.929	323.12
545.027	285.12
545.126	283.12
545.224	370.12
545.323	265.12
545.421	298.12
545.52	313.12
545.619	310.12
545.717	291.12
545.816	387.12
545.914	423.12
546.013	534.12
546.111	473.12
546.209	360.12
546.308	229.12
546.406	300.12
546.505	524.12
546.603	332.12
546.702	257.12
546.8	295.12
546.899	265.12
546.997	333.12
547.095	343.12
547.194	382.12
547.292	327.12
547.39	433.12
547.489	376.12
547.587	569.12
547.685	301.12
547.784	525.12
547.882	354.12
547.98	241.12
548.079	385.12
548.177	301.12
548.275	236.12
548.373	426.12
548.472	305.12
548.57	296.12
548.668	411.12
548.766	348.12
548.864	407.12
548.963	302.12
549.061	477.12
549.159	293.12
549.257	346.12
549.355	338.12
549.454	295.12
549.552	372.12
549.65	325.12
549.748	300.12
549.846	296.12
549.944	301.12
550.042	282.12
550.14	296.12
550.238	293.12
550.336	277.12
550.434	198.12
550.532	258.12
550.631	408.12
550.729	321.12
550.827	323.12
550.925	308.12
551.023	324.12
551.121	251.12
551.218	259.12
551.316	263.12
551.414	249.12
551.512	200.12
551.61	280.12
551.708	350.12
551.806	288.12
551.904	285.12
552.002	258.12
552.1	251.12
552.198	232.12
552.296	495.12
552.393	425.12
552.491	478.12
552.589	457.12
552.687	416.12
552.785	383.12
552.882	514.12
552.98	524.12
553.078	429.12
553.176	433.12
553.274	289.12
553.371	310.12
553.469	364.12
553.567	358.12
553.665	297.12
553.762	755.12
553.86	471.12
553.958	357.12
554.055	354.12
554.153	459.12
554.251	362.12
554.348	324.12
554.446	288.12
554.544	317.12
554.641	616.12
554.739	300.12
554.837	332.12
554.934	309.12
555.032	315.12
555.129	287.12
555.227	532.12
555.324	1558.12
555.422	490.12
555.519	301.12
555.617	333.12
555.715	241.12
555.812	1972.12
555.91	407.12
556.007	353.12
556.105	308.12
556.202	328.12
556.299	220.12
556.397	331.12
556.494	259.12
556.592	257.12
556.689	376.12
556.787	315.12
556.884	227.12
556.981	248.12
557.079	284.12
557.176	303.12
557.273	271.12
557.371	401.12
557.468	291.12
557.566	284.12
557.663	294.12
557.76	291.12
557.857	209.12
557.955	305.12
558.052	396.12
558.149	371.12
558.247	449.12
558.344	280.12
558.441	180.12
558.538	301.12
558.636	305.12
558.733	260.12
558.83	313.12
558.927	308.12
559.024	276.12
559.122	219.12
559.219	293.12
559.316	354.12
559.413	388.12
559.51	278.12
559.607	252.12
559.704	299.12
559.801	351.12
559.899	297.12
559.996	526.12
560.093	349.12
560.19	264.12
560.287	352.12
560.384	476.12
560.481	288.12
560.578	254.12
560.675	257.12
560.772	364.12
560.869	346.12
560.966	428.12
561.063	306.12
561.16	398.12
561.257	324.12
561.354	293.12
561.451	327.12
561.548	303.12
561.645	448.12
561.742	302.12
561.838	291.12
561.935	271.12
562.032	284.12
562.129	336.12
562.226	251.12
562.323	246.12
562.42	382.12
562.516	225.12
562.613	211.12
562.71	318.12
562.807	1011.12
562.904	315.12
563	302.12
563.097	272.12
563.194	260.12
563.291	235.12
563.387	276.12
563.484	266.12
563.581	251.12
563.678	244.12
563.774	651.12
563.871	312.12
563.968	334.12
564.064	292.12
564.161	244.12
564.258	268.12
564.354	392.12
564.451	323.12
564.548	324.12
564.644	362.12
564.741	298.12
564.837	278.12
564.934	279.12
565.031	261.12
565.127	299.12
565.224	356.12
565.32	434.12
565.417	298.12
565.513	395.12
565.61	412.12
565.706	420.12
565.803	392.12
565.899	401.12
565.996	418.12
566.092	400.12
566.189	420.12
566.285	356.12
566.382	397.12
566.478	484.12
566.574	482.12
566.671	398.12
566.767	443.12
566.864	374.12
566.96	434.12
567.056	371.12
567.153	596.12
567.249	477.12
567.345	506.12
567.442	605.12
567.538	534.12
567.634	508.12
567.731	491.12
567.827	485.12
567.923	508.12
568.019	379.12
568.116	359.12
568.212	315.12
568.308	438.12
568.404	411.12
568.501	375.12
568.597	386.12
568.693	375.12
568.789	917.12
568.885	374.12
568.982	386.12
569.078	303.12
569.174	367.12
569.27	275.12
569.366	346.12
569.462	315.12
569.558	261.12
569.655	336.12
569.751	236.12
569.847	271.12
569.943	301.12
570.039	180.12
570.135	622.12
570.231	290.12
570.327	395.12
570.423	335.12
570.519	318.12
570.615	249.12
570.711	328.12
570.807	290.12
570.903	263.12
570.999	284.12
571.095	295.12
571.191	304.12
571.287	304.12
571.383	341.12
571.479	349.12
571.574	377.12
571.67	252.12
571.766	433.12
571.862	258.12
571.958	241.12
572.054	316.12
572.15	227.12
572.246	203.12
572.341	309.12
572.437	289.12
572.533	266.12
572.629	251.12
572.725	292.12
572.82	211.12
572.916	325.12
573.012	251.12
573.108	327.12
573.203	243.12
573.299	228.12
573.395	270.12
573.49	140.12
573.586	206.12
573.682	250.12
573.778	371.12
573.873	189.12
573.969	217.12
574.065	172.12
574.16	211.12
574.256	277.12
574.351	297.12
574.447	187.12
574.543	182.12
574.638	328.12
574.734	218.12
574.829	389.12
574.925	283.12
575.02	210.12
575.116	233.12
575.212	269.12
575.307	360.12
575.403	204.12
575.498	283.12
575.594	225.12
575.689	302.12
575.784	305.12
575.88	326.12
575.975	266.12
576.071	214.12
576.166	202.12
576.262	205.12
576.357	192.12
576.452	375.12
576.548	257.12
576.643	190.12
576.739	216.12
576.834	217.12
576.929	177.12
577.025	917.12
577.12	250.12
577.215	204.12
577.311	204.12
577.406	331.12
577.501	371.12
577.597	142.12
577.692	376.12
577.787	309.12
577.882	194.12
577.978	261.12
578.073	208.12
578.168	97.12
578.263	140.12
578.358	214.12
578.454	145.12
578.549	128.12
578.644	181.12
578.739	227.12
578.834	160.12
578.929	196.12
579.025	169.12
579.12	225.12
579.215	482.12
579.31	418.12
579.405	170.12
579.5	274.12
579.595	240.12
579.69	149.12
579.785	173.12
579.88	202.12
579.975	180.12
580.07	174.12
580.165	211.12
580.26	276.12
580.355	207.12
580.45	197.12
580.545	176.12
580.64	178.12
580.735	287.12
580.83	238.12
580.925	159.12
581.02	133.12
581.115	182.12
581.21	99.12
581.305	176.12
581.4	269.12
581.495	148.12
581.589	165.12
581.684	132.12
581.779	244.12
581.874	188.12
581.969	202.12
582.064	143.12
582.158	139.12
582.253	128.12
582.348	218.12
582.443	201.12
582.537	173.12
582.632	402.12
582.727	199.12
582.822	150.12
582.916	181.12
583.011	166.12
583.106	213.12
583.201	186.12
583.295	218.12
583.39	123.12
583.485	117.12
583.579	2043.12
583.674	375.12
583.769	429.12
583.863	262.12
583.958	151.12
584.052	88.12
584.147	156.12
584.242	136.12
584.336	160.12
584.431	333.12
584.525	179.12
584.62	289.12
584.714	259.12
584.809	223.12
584.903	160.12
584.998	172.12
585.092	129.12
585.187	159.12
585.281	133.12
585.376	204.12
585.47	223.12
585.565	127.12
585.659	75.12
585.754	152.12
585.848	170.12
585.942	153.12
586.037	186.12
586.131	2485.12
586.226	343.12
586.32	259.12
586.414	48.12
586.509	240.12
586.603	237.12
586.697	139.12
586.792	63.12
586.886	98.12
586.98	256.12
587.075	139.12
587.169	138.12
587.263	386.12
587.357	186.12
587.452	68.12
587.546	281.12
587.64	128.12
587.734	179.12
587.829	217.12
587.923	133.12
588.017	142.12
588.111	116.12
588.205	232.12
588.3	105.12
588.394	69.12
588.488	101.12
588.582	184.12
588.676	186.12
588.77	345.12
588.864	805.12
588.958	623.12
589.052	361.12
589.147	378.12
589.241	249.12
589.335	199.12
589.429	530.12
589.523	553.12
589.617	405.12
589.711	354.12
589.805	255.12
589.899	281.12
589.993	174.12
590.087	83.12
590.181	57.12
590.275	176.12
590.369	127.12
590.462	46.12
590.556	73.12
590.65	101.12
590.744	104.12
590.838	107.12
590.932	187.12
591.026	205.12
591.12	288.12
591.214	169.12
591.307	147.12
591.401	126.12
591.495	200.12
591.589	100.12
591.683	141.12
591.777	184.12
591.87	517.12
591.964	205.12
592.058	91.12
592.152	262.12
592.245	123.12
592.339	222.12
592.433	319.12
592.527	202.12
592.62	100.12
592.714	165.12
592.808	226.12
592.901	178.12
592.995	148.12
593.089	446.12
593.182	219.12
593.276	153.12
593.37	152.12
593.463	132.12
593.557	141.12
593.65	161.12
593.744	183.12
593.837	248.12
593.931	151.12
594.025	3195.12
594.118	468.12
594.212	121.12
594.305	136.12
594.399	181.12
594.492	518.12
594.586	241.12
594.679	113.12
594.773	122.12
594.866	232.12
594.96	156.12
595.053	88.12
595.146	145.12
595.24	131.12
595.333	85.12
595.427	63.12
595.52	114.12
595.614	251.12
595.707	153.12
595.8	179.12
595.894	108.12
595.987	77.12
596.08	92.12
596.174	531.12
596.267	265.12
596.36	274.12
596.454	322.12
596.547	237.12
596.64	117.12
596.733	111.12
596.827	213.12
596.92	146.12
597.013	97.12
597.106	44.12
597.2	88.12
597.293	111.12
597.386	323.12
597.479	150.12
597.572	125.12
597.666	89.12
597.759	118.12
597.852	202.12
597.945	123.12
598.038	59.12
598.131	99.12
598.224	153.12
598.317	169.12
598.411	137.12
598.504	85.12
598.597	153.12
598.69	81.12
598.783	124.12
598.876	178.12
598.969	101.12
599.062	53.12
599.155	202.12
599.248	65.12
599.341	127.12
599.434	112.12
599.527	126.12
599.62	106.12
599.713	101.12
599.806	180.12
599.899	273.12
599.991	111.12
600.084	311.12
600.177	80.12
600.27	98.12
600.363	296.12
600.456	65.12
600.549	170.12
600.642	116.12
600.734	66.12
600.827	74.12
600.92	241.12
601.013	118.12
601.106	174.12
601.199	121.12
601.291	112.12
601.384	105.12
601.477	304.12
601.57	245.12
601.662	71.12
601.755	106.12
601.848	177.12
601.94	104.12
602.033	228.12
602.126	186.12
602.219	106.12
602.311	217.12
602.404	93.12
602.497	119.12
602.589	77.12
602.682	157.12
602.774	201.12
602.867	142.12
602.96	110.12
603.052	178.12
603.145	79.12
603.237	105.12
603.33	117.12
603.422	221.12
603.515	77.12
603.608	169.12
603.7	146.12
603.793	80.12
603.885	123.12
603.978	127.12
604.07	82.12
604.163	81.12
604.255	172.12
604.347	57.12
604.44	59.12
604.532	152.12
604.625	114.12
604.717	69.12
604.81	178.12
604.902	104.12
604.994	48.12
605.087	89.12
605.179	154.12
605.271	117.12
605.364	117.12
605.456	203.12
605.548	91.12
605.641	104.12
605.733	97.12
605.825	108.12
605.918	35.12
606.01	269.12
606.102	626.12
606.194	137.12
606.287	252.12
606.379	110.12
606.471	118.12
606.563	147.12
606.655	190.12
606.748	169.12
606.84	101.12
606.932	200.12
607.024	95.12
607.116	41.12
607.208	100.12
607.301	158.12
607.393	76.12
607.485	124.12
607.577	174.12
607.669	177.12
607.761	184.12
607.853	459.12
607.945	84.12
608.037	25.12
608.129	146.12
608.221	103.12
608.313	69.12
608.405	161.12
608.497	133.12
608.589	45.12
608.681	109.12
608.773	218.12
608.865	117.12
608.957	152.12
609.049	123.12
609.141	179.12
609.233	80.12
609.325	121.12
609.417	89.12
609.509	173.12
609.601	291.12
609.693	254.12
609.784	74.12
609.876	123.12
609.968	190.12
610.06	2395.12
610.152	385.12
610.244	407.12
610.335	122.12
610.427	136.12
610.519	138.12
610.611	115.12
610.702	83.12
610.794	163.12
610.886	210.12
610.978	142.12
611.069	619.12
611.161	214.12
611.253	227.12
611.344	106.12
611.436	100.12
611.528	170.12
611.62	61.12
611.711	142.12
611.803	70.12
611.894	56.12
611.986	99.12
612.078	147.12
612.169	131.12
612.261	95.12
612.352	112.12
612.444	45.12
612.536	217.12
612.627	144.12
612.719	16.12
612.81	34.12
612.902	48.12
612.993	121.12
613.085	117.12
613.176	27.12
613.268	119.12
613.359	51.12
613.451	67.12
613.542	124.12
613.634	38.12
613.725	103.12
613.816	202.12
613.908	66.12
613.999	76.12
614.091	45.12
614.182	-30.88
614.273	76.12
614.365	76.12
614.456	-29.88
614.547	5.12
614.639	-12.88
614.73	50.12
614.821	75.12
614.913	-22.88
615.004	-5.88
615.095	-40.88
615.187	-55.88
