Data from 35g_HRC06701__6__433.txt Node

Date: Thu Apr 18 02:31:38 CDT 2024
User: Estudiantes 2
Spectrometer: HR+C0670
Trigger mode: 4
Integration Time (sec): 1.000000E0
Scans to average: 1
Electric dark correction enabled: true
Nonlinearity correction enabled: false
Boxcar width: 0
XAxis mode: Wavelengths
Number of Pixels in Spectrum: 2048
>>>>>Begin Spectral Data<<<<<
407.81	-129.06
407.921	-129.06
408.032	-129.06
408.143	-171.06
408.254	-160.06
408.365	33.94
408.476	273.94
408.587	-18.06
408.699	10.94
408.81	11.94
408.921	-41.06
409.032	-38.06
409.143	62.94
409.254	12.94
409.365	93.94
409.476	10.94
409.587	-10.06
409.698	55.94
409.809	116.94
409.92	-49.06
410.031	-27.06
410.142	76.94
410.253	42.94
410.364	28.94
410.475	-53.06
410.585	82.94
410.696	58.94
410.807	57.94
410.918	110.94
411.029	109.94
411.14	94.94
411.251	80.94
411.362	122.94
411.472	92.94
411.583	93.94
411.694	164.94
411.805	78.94
411.916	66.94
412.026	182.94
412.137	63.94
412.248	85.94
412.359	123.94
412.47	36.94
412.58	63.94
412.691	150.94
412.802	109.94
412.912	84.94
413.023	87.94
413.134	116.94
413.245	183.94
413.355	99.94
413.466	88.94
413.577	67.94
413.687	154.94
413.798	89.94
413.909	153.94
414.019	62.94
414.13	106.94
414.24	53.94
414.351	118.94
414.462	245.94
414.572	157.94
414.683	117.94
414.793	50.94
414.904	459.94
415.014	99.94
415.125	35.94
415.235	180.94
415.346	209.94
415.456	215.94
415.567	120.94
415.677	123.94
415.788	123.94
415.898	101.94
416.009	97.94
416.119	106.94
416.23	81.94
416.34	70.94
416.45	70.94
416.561	840.94
416.671	264.94
416.782	41.94
416.892	34.94
417.002	129.94
417.113	132.94
417.223	91.94
417.333	32.94
417.444	91.94
417.554	126.94
417.664	157.94
417.775	53.94
417.885	60.94
417.995	97.94
418.106	233.94
418.216	118.94
418.326	105.94
418.436	108.94
418.547	87.94
418.657	29.94
418.767	206.94
418.877	94.94
418.987	85.94
419.098	75.94
419.208	123.94
419.318	174.94
419.428	141.94
419.538	116.94
419.648	117.94
419.759	133.94
419.869	186.94
419.979	117.94
420.089	92.94
420.199	69.94
420.309	122.94
420.419	118.94
420.529	110.94
420.639	632.94
420.749	168.94
420.859	152.94
420.969	177.94
421.079	358.94
421.189	214.94
421.299	190.94
421.409	59.94
421.519	198.94
421.629	185.94
421.739	133.94
421.849	59.94
421.959	53.94
422.069	188.94
422.179	64.94
422.289	50.94
422.399	142.94
422.509	192.94
422.619	3748.94
422.729	488.94
422.838	59.94
422.948	114.94
423.058	72.94
423.168	124.94
423.278	77.94
423.388	118.94
423.498	164.94
423.607	118.94
423.717	403.94
423.827	425.94
423.937	124.94
424.046	204.94
424.156	230.94
424.266	96.94
424.376	339.94
424.485	289.94
424.595	132.94
424.705	60.94
424.815	110.94
424.924	567.94
425.034	188.94
425.144	70.94
425.253	179.94
425.363	162.94
425.473	163.94
425.582	65.94
425.692	84.94
425.801	66.94
425.911	262.94
426.021	203.94
426.13	205.94
426.24	347.94
426.349	277.94
426.459	149.94
426.568	52.94
426.678	271.94
426.787	119.94
426.897	117.94
427.006	141.94
427.116	170.94
427.225	138.94
427.335	197.94
427.444	181.94
427.554	171.94
427.663	146.94
427.773	166.94
427.882	183.94
427.992	78.94
428.101	144.94
428.21	117.94
428.32	138.94
428.429	77.94
428.539	426.94
428.648	102.94
428.757	197.94
428.867	167.94
428.976	261.94
429.085	148.94
429.195	147.94
429.304	105.94
429.413	153.94
429.523	229.94
429.632	175.94
429.741	163.94
429.85	106.94
429.96	177.94
430.069	104.94
430.178	137.94
430.287	439.94
430.397	175.94
430.506	143.94
430.615	179.94
430.724	139.94
430.833	168.94
430.943	202.94
431.052	185.94
431.161	132.94
431.27	183.94
431.379	129.94
431.488	247.94
431.597	234.94
431.706	273.94
431.816	138.94
431.925	166.94
432.034	165.94
432.143	188.94
432.252	143.94
432.361	314.94
432.47	190.94
432.579	179.94
432.688	154.94
432.797	190.94
432.906	80.94
433.015	202.94
433.124	577.94
433.233	200.94
433.342	236.94
433.451	194.94
433.56	147.94
433.669	123.94
433.778	162.94
433.886	164.94
433.995	190.94
434.104	309.94
434.213	225.94
434.322	105.94
434.431	283.94
434.54	198.94
434.649	331.94
434.757	198.94
434.866	202.94
434.975	233.94
435.084	251.94
435.193	282.94
435.301	480.94
435.41	559.94
435.519	642.94
435.628	255.94
435.737	183.94
435.845	151.94
435.954	167.94
436.063	182.94
436.171	170.94
436.28	259.94
436.389	308.94
436.498	206.94
436.606	217.94
436.715	327.94
436.823	158.94
436.932	168.94
437.041	173.94
437.149	203.94
437.258	138.94
437.367	199.94
437.475	158.94
437.584	417.94
437.692	252.94
437.801	1753.94
437.91	333.94
438.018	181.94
438.127	137.94
438.235	238.94
438.344	161.94
438.452	225.94
438.561	109.94
438.669	109.94
438.778	129.94
438.886	134.94
438.995	114.94
439.103	169.94
439.212	129.94
439.32	116.94
439.428	171.94
439.537	161.94
439.645	202.94
439.754	164.94
439.862	150.94
439.97	144.94
440.079	114.94
440.187	147.94
440.295	260.94
440.404	169.94
440.512	204.94
440.62	201.94
440.729	210.94
440.837	253.94
440.945	820.94
441.054	249.94
441.162	163.94
441.27	283.94
441.378	129.94
441.487	152.94
441.595	540.94
441.703	232.94
441.811	222.94
441.92	184.94
442.028	102.94
442.136	193.94
442.244	220.94
442.352	187.94
442.461	90.94
442.569	98.94
442.677	168.94
442.785	199.94
442.893	190.94
443.001	160.94
443.109	101.94
443.217	109.94
443.325	147.94
443.434	635.94
443.542	392.94
443.65	177.94
443.758	318.94
443.866	153.94
443.974	442.94
444.082	261.94
444.19	163.94
444.298	182.94
444.406	286.94
444.514	161.94
444.622	230.94
444.73	308.94
444.838	209.94
444.946	244.94
445.054	208.94
445.161	166.94
445.269	103.94
445.377	172.94
445.485	221.94
445.593	225.94
445.701	420.94
445.809	312.94
445.917	180.94
446.025	108.94
446.132	335.94
446.24	253.94
446.348	210.94
446.456	154.94
446.564	158.94
446.671	154.94
446.779	173.94
446.887	171.94
446.995	165.94
447.102	234.94
447.21	295.94
447.318	217.94
447.426	139.94
447.533	477.94
447.641	1368.94
447.749	342.94
447.856	172.94
447.964	162.94
448.072	286.94
448.179	174.94
448.287	244.94
448.395	227.94
448.502	130.94
448.61	229.94
448.718	171.94
448.825	225.94
448.933	229.94
449.04	115.94
449.148	161.94
449.256	183.94
449.363	183.94
449.471	159.94
449.578	236.94
449.686	184.94
449.793	264.94
449.901	158.94
450.008	228.94
450.116	207.94
450.223	155.94
450.331	242.94
450.438	165.94
450.546	179.94
450.653	301.94
450.76	226.94
450.868	249.94
450.975	426.94
451.083	233.94
451.19	250.94
451.297	262.94
451.405	325.94
451.512	157.94
451.619	323.94
451.727	362.94
451.834	224.94
451.941	215.94
452.049	204.94
452.156	235.94
452.263	246.94
452.371	229.94
452.478	248.94
452.585	351.94
452.692	172.94
452.8	287.94
452.907	332.94
453.014	241.94
453.121	247.94
453.229	279.94
453.336	329.94
453.443	365.94
453.55	231.94
453.657	253.94
453.765	264.94
453.872	290.94
453.979	290.94
454.086	237.94
454.193	281.94
454.3	255.94
454.407	381.94
454.514	422.94
454.621	225.94
454.729	226.94
454.836	269.94
454.943	263.94
455.05	293.94
455.157	310.94
455.264	278.94
455.371	260.94
455.478	221.94
455.585	519.94
455.692	265.94
455.799	446.94
455.906	257.94
456.013	220.94
456.12	221.94
456.227	242.94
456.334	322.94
456.44	343.94
456.547	266.94
456.654	275.94
456.761	274.94
456.868	324.94
456.975	373.94
457.082	249.94
457.189	236.94
457.296	279.94
457.402	271.94
457.509	213.94
457.616	293.94
457.723	501.94
457.83	287.94
457.936	245.94
458.043	564.94
458.15	268.94
458.257	327.94
458.363	358.94
458.47	262.94
458.577	321.94
458.684	284.94
458.79	337.94
458.897	297.94
459.004	366.94
459.11	299.94
459.217	293.94
459.324	375.94
459.43	445.94
459.537	568.94
459.644	346.94
459.75	347.94
459.857	696.94
459.964	382.94
460.07	399.94
460.177	357.94
460.283	403.94
460.39	506.94
460.496	438.94
460.603	436.94
460.71	386.94
460.816	418.94
460.923	360.94
461.029	401.94
461.136	452.94
461.242	377.94
461.349	406.94
461.455	354.94
461.562	732.94
461.668	494.94
461.774	409.94
461.881	488.94
461.987	380.94
462.094	387.94
462.2	478.94
462.307	492.94
462.413	392.94
462.519	448.94
462.626	497.94
462.732	469.94
462.838	487.94
462.945	544.94
463.051	460.94
463.157	482.94
463.264	516.94
463.37	506.94
463.476	484.94
463.583	471.94
463.689	390.94
463.795	404.94
463.901	501.94
464.008	545.94
464.114	441.94
464.22	396.94
464.326	449.94
464.433	340.94
464.539	418.94
464.645	413.94
464.751	573.94
464.857	395.94
464.963	370.94
465.07	412.94
465.176	414.94
465.282	447.94
465.388	461.94
465.494	318.94
465.6	404.94
465.706	341.94
465.812	185.94
465.918	393.94
466.024	304.94
466.131	354.94
466.237	277.94
466.343	269.94
466.449	219.94
466.555	252.94
466.661	269.94
466.767	249.94
466.873	280.94
466.979	428.94
467.085	282.94
467.191	288.94
467.296	218.94
467.402	277.94
467.508	297.94
467.614	418.94
467.72	261.94
467.826	247.94
467.932	267.94
468.038	279.94
468.144	257.94
468.25	248.94
468.355	228.94
468.461	283.94
468.567	168.94
468.673	212.94
468.779	285.94
468.885	213.94
468.99	168.94
469.096	257.94
469.202	350.94
469.308	297.94
469.413	319.94
469.519	231.94
469.625	199.94
469.731	280.94
469.836	226.94
469.942	402.94
470.048	293.94
470.153	259.94
470.259	229.94
470.365	315.94
470.47	331.94
470.576	268.94
470.682	269.94
470.787	253.94
470.893	185.94
470.999	242.94
471.104	318.94
471.21	223.94
471.315	147.94
471.421	200.94
471.527	483.94
471.632	300.94
471.738	269.94
471.843	206.94
471.949	251.94
472.054	247.94
472.16	231.94
472.265	217.94
472.371	193.94
472.476	256.94
472.582	346.94
472.687	244.94
472.793	154.94
472.898	229.94
473.003	196.94
473.109	162.94
473.214	166.94
473.32	187.94
473.425	294.94
473.53	289.94
473.636	158.94
473.741	154.94
473.847	172.94
473.952	212.94
474.057	249.94
474.163	262.94
474.268	211.94
474.373	291.94
474.478	134.94
474.584	185.94
474.689	214.94
474.794	222.94
474.9	456.94
475.005	177.94
475.11	325.94
475.215	187.94
475.321	242.94
475.426	355.94
475.531	342.94
475.636	222.94
475.741	170.94
475.846	293.94
475.952	471.94
476.057	294.94
476.162	270.94
476.267	400.94
476.372	522.94
476.477	205.94
476.582	350.94
476.687	236.94
476.793	224.94
476.898	190.94
477.003	284.94
477.108	181.94
477.213	152.94
477.318	230.94
477.423	223.94
477.528	291.94
477.633	342.94
477.738	257.94
477.843	179.94
477.948	244.94
478.053	234.94
478.158	186.94
478.263	251.94
478.368	246.94
478.473	298.94
478.578	245.94
478.682	227.94
478.787	276.94
478.892	246.94
478.997	349.94
479.102	251.94
479.207	179.94
479.312	350.94
479.417	301.94
479.521	214.94
479.626	315.94
479.731	329.94
479.836	249.94
479.941	363.94
480.045	390.94
480.15	277.94
480.255	272.94
480.36	276.94
480.465	353.94
480.569	418.94
480.674	272.94
480.779	221.94
480.883	197.94
480.988	293.94
481.093	313.94
481.197	280.94
481.302	256.94
481.407	343.94
481.511	1494.94
481.616	381.94
481.721	325.94
481.825	469.94
481.93	251.94
482.035	263.94
482.139	329.94
482.244	305.94
482.348	266.94
482.453	317.94
482.557	295.94
482.662	331.94
482.767	255.94
482.871	202.94
482.976	264.94
483.08	326.94
483.185	436.94
483.289	228.94
483.394	277.94
483.498	294.94
483.603	227.94
483.707	289.94
483.811	338.94
483.916	409.94
484.02	292.94
484.125	402.94
484.229	298.94
484.333	390.94
484.438	326.94
484.542	269.94
484.647	205.94
484.751	268.94
484.855	309.94
484.96	236.94
485.064	328.94
485.168	342.94
485.273	235.94
485.377	331.94
485.481	558.94
485.585	245.94
485.69	244.94
485.794	376.94
485.898	322.94
486.002	265.94
486.107	325.94
486.211	351.94
486.315	331.94
486.419	358.94
486.524	390.94
486.628	276.94
486.732	291.94
486.836	369.94
486.94	352.94
487.044	319.94
487.148	330.94
487.253	284.94
487.357	322.94
487.461	511.94
487.565	371.94
487.669	325.94
487.773	298.94
487.877	467.94
487.981	371.94
488.085	423.94
488.189	402.94
488.293	440.94
488.397	789.94
488.501	428.94
488.605	316.94
488.709	335.94
488.813	336.94
488.917	332.94
489.021	347.94
489.125	610.94
489.229	392.94
489.333	470.94
489.437	363.94
489.541	441.94
489.645	308.94
489.749	338.94
489.853	442.94
489.956	362.94
490.06	359.94
490.164	333.94
490.268	361.94
490.372	343.94
490.476	364.94
490.579	332.94
490.683	983.94
490.787	440.94
490.891	387.94
490.995	396.94
491.098	387.94
491.202	374.94
491.306	404.94
491.41	366.94
491.513	301.94
491.617	374.94
491.721	514.94
491.824	593.94
491.928	426.94
492.032	566.94
492.136	390.94
492.239	412.94
492.343	365.94
492.446	757.94
492.55	486.94
492.654	350.94
492.757	302.94
492.861	401.94
492.965	419.94
493.068	357.94
493.172	359.94
493.275	379.94
493.379	350.94
493.482	460.94
493.586	530.94
493.689	559.94
493.793	338.94
493.896	522.94
494	442.94
494.103	439.94
494.207	684.94
494.31	803.94
494.414	435.94
494.517	397.94
494.621	389.94
494.724	357.94
494.828	340.94
494.931	406.94
495.034	354.94
495.138	511.94
495.241	340.94
495.345	1206.94
495.448	516.94
495.551	322.94
495.655	401.94
495.758	319.94
495.861	327.94
495.965	433.94
496.068	411.94
496.171	448.94
496.274	367.94
496.378	360.94
496.481	420.94
496.584	403.94
496.687	384.94
496.791	429.94
496.894	415.94
496.997	401.94
497.1	389.94
497.204	415.94
497.307	387.94
497.41	517.94
497.513	608.94
497.616	444.94
497.719	362.94
497.823	392.94
497.926	412.94
498.029	440.94
498.132	426.94
498.235	434.94
498.338	521.94
498.441	568.94
498.544	499.94
498.647	509.94
498.75	598.94
498.853	700.94
498.956	594.94
499.059	738.94
499.163	557.94
499.266	590.94
499.369	609.94
499.471	609.94
499.574	704.94
499.677	697.94
499.78	746.94
499.883	750.94
499.986	856.94
500.089	705.94
500.192	795.94
500.295	870.94
500.398	771.94
500.501	807.94
500.604	760.94
500.707	749.94
500.809	730.94
500.912	839.94
501.015	786.94
501.118	651.94
501.221	706.94
501.324	661.94
501.426	571.94
501.529	495.94
501.632	554.94
501.735	506.94
501.837	449.94
501.94	468.94
502.043	457.94
502.146	483.94
502.248	467.94
502.351	411.94
502.454	413.94
502.557	377.94
502.659	484.94
502.762	338.94
502.865	334.94
502.967	363.94
503.07	348.94
503.173	405.94
503.275	382.94
503.378	337.94
503.48	322.94
503.583	442.94
503.686	460.94
503.788	637.94
503.891	393.94
503.993	628.94
504.096	314.94
504.198	373.94
504.301	328.94
504.403	362.94
504.506	333.94
504.608	312.94
504.711	358.94
504.813	383.94
504.916	371.94
505.018	349.94
505.121	267.94
505.223	360.94
505.326	353.94
505.428	364.94
505.531	344.94
505.633	354.94
505.735	266.94
505.838	228.94
505.94	311.94
506.042	289.94
506.145	204.94
506.247	354.94
506.35	275.94
506.452	366.94
506.554	318.94
506.656	376.94
506.759	226.94
506.861	278.94
506.963	301.94
507.066	315.94
507.168	412.94
507.27	294.94
507.372	261.94
507.475	264.94
507.577	271.94
507.679	319.94
507.781	230.94
507.883	318.94
507.986	282.94
508.088	269.94
508.19	246.94
508.292	306.94
508.394	244.94
508.496	178.94
508.598	212.94
508.701	320.94
508.803	228.94
508.905	203.94
509.007	341.94
509.109	300.94
509.211	302.94
509.313	253.94
509.415	189.94
509.517	242.94
509.619	234.94
509.721	297.94
509.823	234.94
509.925	396.94
510.027	291.94
510.129	274.94
510.231	275.94
510.333	280.94
510.435	222.94
510.537	316.94
510.639	346.94
510.741	231.94
510.843	332.94
510.945	262.94
511.047	312.94
511.148	270.94
511.25	237.94
511.352	320.94
511.454	178.94
511.556	312.94
511.658	267.94
511.76	281.94
511.861	411.94
511.963	259.94
512.065	225.94
512.167	199.94
512.268	429.94
512.37	368.94
512.472	226.94
512.574	294.94
512.676	326.94
512.777	186.94
512.879	185.94
512.981	234.94
513.082	256.94
513.184	237.94
513.286	765.94
513.387	319.94
513.489	399.94
513.591	360.94
513.692	349.94
513.794	266.94
513.896	207.94
513.997	194.94
514.099	201.94
514.2	270.94
514.302	316.94
514.404	260.94
514.505	212.94
514.607	327.94
514.708	219.94
514.81	283.94
514.911	277.94
515.013	319.94
515.114	327.94
515.216	261.94
515.317	298.94
515.419	235.94
515.52	286.94
515.622	338.94
515.723	276.94
515.825	417.94
515.926	355.94
516.027	278.94
516.129	266.94
516.23	320.94
516.332	320.94
516.433	300.94
516.534	398.94
516.636	340.94
516.737	276.94
516.838	1313.94
516.94	498.94
517.041	313.94
517.142	421.94
517.244	508.94
517.345	380.94
517.446	364.94
517.547	421.94
517.649	362.94
517.75	382.94
517.851	369.94
517.952	670.94
518.054	399.94
518.155	509.94
518.256	439.94
518.357	489.94
518.458	296.94
518.56	353.94
518.661	350.94
518.762	342.94
518.863	486.94
518.964	449.94
519.065	248.94
519.166	267.94
519.268	301.94
519.369	538.94
519.47	351.94
519.571	370.94
519.672	209.94
519.773	285.94
519.874	397.94
519.975	361.94
520.076	328.94
520.177	408.94
520.278	352.94
520.379	299.94
520.48	226.94
520.581	290.94
520.682	251.94
520.783	244.94
520.884	352.94
520.985	318.94
521.086	325.94
521.187	404.94
521.288	300.94
521.389	311.94
521.489	316.94
521.59	286.94
521.691	342.94
521.792	214.94
521.893	457.94
521.994	454.94
522.095	369.94
522.195	470.94
522.296	436.94
522.397	409.94
522.498	337.94
522.599	287.94
522.699	330.94
522.8	302.94
522.901	410.94
523.002	326.94
523.102	508.94
523.203	384.94
523.304	487.94
523.405	314.94
523.505	369.94
523.606	371.94
523.707	396.94
523.807	372.94
523.908	316.94
524.009	441.94
524.109	383.94
524.21	330.94
524.31	370.94
524.411	446.94
524.512	501.94
524.612	368.94
524.713	507.94
524.813	390.94
524.914	565.94
525.014	6289.94
525.115	898.94
525.216	332.94
525.316	342.94
525.417	380.94
525.517	350.94
525.618	308.94
525.718	286.94
525.819	331.94
525.919	353.94
526.019	277.94
526.12	460.94
526.22	273.94
526.321	308.94
526.421	230.94
526.522	309.94
526.622	260.94
526.722	302.94
526.823	357.94
526.923	319.94
527.023	457.94
527.124	379.94
527.224	369.94
527.324	246.94
527.425	365.94
527.525	259.94
527.625	312.94
527.726	316.94
527.826	397.94
527.926	315.94
528.026	344.94
528.127	314.94
528.227	309.94
528.327	391.94
528.427	379.94
528.528	363.94
528.628	392.94
528.728	392.94
528.828	392.94
528.928	374.94
529.029	348.94
529.129	396.94
529.229	368.94
529.329	370.94
529.429	458.94
529.529	450.94
529.629	413.94
529.729	413.94
529.829	550.94
529.93	366.94
530.03	414.94
530.13	372.94
530.23	346.94
530.33	462.94
530.43	369.94
530.53	384.94
530.63	367.94
530.73	352.94
530.83	252.94
530.93	259.94
531.03	301.94
531.13	382.94
531.23	295.94
531.33	425.94
531.429	411.94
531.529	463.94
531.629	401.94
531.729	282.94
531.829	273.94
531.929	293.94
532.029	374.94
532.129	290.94
532.229	371.94
532.328	373.94
532.428	296.94
532.528	253.94
532.628	300.94
532.728	322.94
532.827	276.94
532.927	390.94
533.027	314.94
533.127	423.94
533.227	358.94
533.326	366.94
533.426	236.94
533.526	411.94
533.625	500.94
533.725	583.94
533.825	430.94
533.924	340.94
534.024	225.94
534.124	259.94
534.223	365.94
534.323	741.94
534.423	363.94
534.522	348.94
534.622	308.94
534.722	246.94
534.821	353.94
534.921	329.94
535.02	233.94
535.12	393.94
535.219	469.94
535.319	406.94
535.419	365.94
535.518	333.94
535.618	355.94
535.717	415.94
535.817	253.94
535.916	262.94
536.016	329.94
536.115	299.94
536.215	299.94
536.314	200.94
536.413	226.94
536.513	300.94
536.612	281.94
536.712	164.94
536.811	276.94
536.91	220.94
537.01	198.94
537.109	306.94
537.209	338.94
537.308	217.94
537.407	249.94
537.507	313.94
537.606	212.94
537.705	332.94
537.805	269.94
537.904	212.94
538.003	257.94
538.102	375.94
538.202	327.94
538.301	332.94
538.4	352.94
538.499	326.94
538.599	329.94
538.698	488.94
538.797	342.94
538.896	356.94
538.995	297.94
539.095	296.94
539.194	446.94
539.293	264.94
539.392	284.94
539.491	294.94
539.59	278.94
539.689	417.94
539.789	437.94
539.888	168.94
539.987	169.94
540.086	273.94
540.185	257.94
540.284	300.94
540.383	294.94
540.482	214.94
540.581	268.94
540.68	273.94
540.779	333.94
540.878	284.94
540.977	365.94
541.076	367.94
541.175	327.94
541.274	539.94
541.373	409.94
541.472	321.94
541.571	204.94
541.67	1662.94
541.769	491.94
541.868	277.94
541.966	388.94
542.065	338.94
542.164	296.94
542.263	264.94
542.362	334.94
542.461	353.94
542.56	374.94
542.658	402.94
542.757	225.94
542.856	194.94
542.955	273.94
543.054	226.94
543.152	397.94
543.251	311.94
543.35	424.94
543.449	312.94
543.547	283.94
543.646	283.94
543.745	303.94
543.843	388.94
543.942	364.94
544.041	239.94
544.14	329.94
544.238	325.94
544.337	486.94
544.436	325.94
544.534	403.94
544.633	382.94
544.731	280.94
544.83	299.94
544.929	340.94
545.027	291.94
545.126	255.94
545.224	385.94
545.323	275.94
545.421	301.94
545.52	317.94
545.619	326.94
545.717	294.94
545.816	403.94
545.914	406.94
546.013	516.94
546.111	497.94
546.209	346.94
546.308	277.94
546.406	287.94
546.505	506.94
546.603	333.94
546.702	237.94
546.8	299.94
546.899	298.94
546.997	352.94
547.095	362.94
547.194	412.94
547.292	301.94
547.39	375.94
547.489	349.94
547.587	615.94
547.685	348.94
547.784	581.94
547.882	363.94
547.98	254.94
548.079	366.94
548.177	318.94
548.275	242.94
548.373	438.94
548.472	289.94
548.57	289.94
548.668	389.94
548.766	320.94
548.864	428.94
548.963	281.94
549.061	482.94
549.159	314.94
549.257	345.94
549.355	324.94
549.454	298.94
549.552	369.94
549.65	336.94
549.748	309.94
549.846	243.94
549.944	280.94
550.042	292.94
550.14	279.94
550.238	303.94
550.336	290.94
550.434	238.94
550.532	225.94
550.631	428.94
550.729	329.94
550.827	348.94
550.925	284.94
551.023	347.94
551.121	259.94
551.218	261.94
551.316	244.94
551.414	223.94
551.512	188.94
551.61	311.94
551.708	383.94
551.806	342.94
551.904	266.94
552.002	246.94
552.1	242.94
552.198	233.94
552.296	452.94
552.393	449.94
552.491	452.94
552.589	498.94
552.687	417.94
552.785	353.94
552.882	492.94
552.98	593.94
553.078	437.94
553.176	453.94
553.274	306.94
553.371	296.94
553.469	315.94
553.567	354.94
553.665	338.94
553.762	756.94
553.86	510.94
553.958	346.94
554.055	355.94
554.153	442.94
554.251	354.94
554.348	346.94
554.446	287.94
554.544	318.94
554.641	599.94
554.739	310.94
554.837	350.94
554.934	311.94
555.032	276.94
555.129	302.94
555.227	520.94
555.324	4882.94
555.422	806.94
555.519	326.94
555.617	317.94
555.715	220.94
555.812	2036.94
555.91	385.94
556.007	362.94
556.105	316.94
556.202	275.94
556.299	218.94
556.397	307.94
556.494	280.94
556.592	244.94
556.689	338.94
556.787	219.94
556.884	178.94
556.981	244.94
557.079	292.94
557.176	246.94
557.273	284.94
557.371	387.94
557.468	256.94
557.566	318.94
557.663	306.94
557.76	296.94
557.857	219.94
557.955	352.94
558.052	380.94
558.149	380.94
558.247	434.94
558.344	271.94
558.441	202.94
558.538	292.94
558.636	294.94
558.733	293.94
558.83	303.94
558.927	343.94
559.024	283.94
559.122	231.94
559.219	301.94
559.316	343.94
559.413	362.94
559.51	262.94
559.607	308.94
559.704	331.94
559.801	337.94
559.899	324.94
559.996	546.94
560.093	334.94
560.19	284.94
560.287	330.94
560.384	490.94
560.481	290.94
560.578	272.94
560.675	238.94
560.772	342.94
560.869	321.94
560.966	407.94
561.063	273.94
561.16	435.94
561.257	322.94
561.354	269.94
561.451	308.94
561.548	325.94
561.645	452.94
561.742	288.94
561.838	274.94
561.935	261.94
562.032	304.94
562.129	278.94
562.226	292.94
562.323	265.94
562.42	361.94
562.516	285.94
562.613	254.94
562.71	309.94
562.807	1025.94
562.904	282.94
563	295.94
563.097	261.94
563.194	248.94
563.291	235.94
563.387	283.94
563.484	290.94
563.581	276.94
563.678	302.94
563.774	674.94
563.871	323.94
563.968	322.94
564.064	303.94
564.161	248.94
564.258	284.94
564.354	372.94
564.451	310.94
564.548	316.94
564.644	341.94
564.741	254.94
564.837	257.94
564.934	297.94
565.031	246.94
565.127	274.94
565.224	383.94
565.32	442.94
565.417	289.94
565.513	402.94
565.61	380.94
565.706	413.94
565.803	371.94
565.899	349.94
565.996	367.94
566.092	352.94
566.189	381.94
566.285	334.94
566.382	373.94
566.478	447.94
566.574	472.94
566.671	348.94
566.767	403.94
566.864	321.94
566.96	405.94
567.056	391.94
567.153	652.94
567.249	471.94
567.345	508.94
567.442	586.94
567.538	470.94
567.634	429.94
567.731	440.94
567.827	438.94
567.923	477.94
568.019	335.94
568.116	317.94
568.212	271.94
568.308	410.94
568.404	429.94
568.501	354.94
568.597	409.94
568.693	376.94
568.789	1024.94
568.885	344.94
568.982	375.94
569.078	286.94
569.174	353.94
569.27	277.94
569.366	375.94
569.462	345.94
569.558	250.94
569.655	351.94
569.751	213.94
569.847	221.94
569.943	295.94
570.039	201.94
570.135	691.94
570.231	316.94
570.327	419.94
570.423	299.94
570.519	307.94
570.615	254.94
570.711	323.94
570.807	330.94
570.903	271.94
570.999	280.94
571.095	301.94
571.191	327.94
571.287	300.94
571.383	321.94
571.479	329.94
571.574	386.94
571.67	228.94
571.766	443.94
571.862	273.94
571.958	241.94
572.054	307.94
572.15	216.94
572.246	192.94
572.341	328.94
572.437	295.94
572.533	267.94
572.629	244.94
572.725	249.94
572.82	234.94
572.916	338.94
573.012	274.94
573.108	346.94
573.203	245.94
573.299	225.94
573.395	220.94
573.49	178.94
573.586	204.94
573.682	273.94
573.778	364.94
573.873	195.94
573.969	226.94
574.065	216.94
574.16	228.94
574.256	212.94
574.351	329.94
574.447	187.94
574.543	257.94
574.638	351.94
574.734	262.94
574.829	450.94
574.925	281.94
575.02	219.94
575.116	188.94
575.212	268.94
575.307	390.94
575.403	230.94
575.498	282.94
575.594	264.94
575.689	280.94
575.784	255.94
575.88	320.94
575.975	289.94
576.071	178.94
576.166	210.94
576.262	223.94
576.357	165.94
576.452	395.94
576.548	271.94
576.643	192.94
576.739	252.94
576.834	260.94
576.929	246.94
577.025	908.94
577.12	253.94
577.215	177.94
577.311	236.94
577.406	358.94
577.501	371.94
577.597	133.94
577.692	355.94
577.787	316.94
577.882	182.94
577.978	249.94
578.073	198.94
578.168	126.94
578.263	196.94
578.358	234.94
578.454	156.94
578.549	157.94
578.644	204.94
578.739	244.94
578.834	189.94
578.929	210.94
579.025	161.94
579.12	247.94
579.215	471.94
579.31	437.94
579.405	165.94
579.5	249.94
579.595	287.94
579.69	134.94
579.785	158.94
579.88	229.94
579.975	224.94
580.07	172.94
580.165	232.94
580.26	297.94
580.355	200.94
580.45	194.94
580.545	202.94
580.64	203.94
580.735	297.94
580.83	293.94
580.925	172.94
581.02	142.94
581.115	193.94
581.21	118.94
581.305	182.94
581.4	256.94
581.495	177.94
581.589	166.94
581.684	136.94
581.779	261.94
581.874	222.94
581.969	198.94
582.064	181.94
582.158	178.94
582.253	139.94
582.348	227.94
582.443	214.94
582.537	167.94
582.632	409.94
582.727	183.94
582.822	136.94
582.916	155.94
583.011	189.94
583.106	204.94
583.201	163.94
583.295	262.94
583.39	109.94
583.485	121.94
583.579	2076.94
583.674	408.94
583.769	423.94
583.863	233.94
583.958	228.94
584.052	100.94
584.147	130.94
584.242	158.94
584.336	139.94
584.431	345.94
584.525	195.94
584.62	326.94
584.714	284.94
584.809	248.94
584.903	194.94
584.998	221.94
585.092	150.94
585.187	212.94
585.281	117.94
585.376	193.94
585.47	225.94
585.565	197.94
585.659	76.94
585.754	173.94
585.848	189.94
585.942	152.94
586.037	170.94
586.131	1428.94
586.226	266.94
586.32	260.94
586.414	99.94
586.509	218.94
586.603	205.94
586.697	174.94
586.792	110.94
586.886	104.94
586.98	330.94
587.075	167.94
587.169	154.94
587.263	373.94
587.357	165.94
587.452	133.94
587.546	292.94
587.64	106.94
587.734	168.94
587.829	193.94
587.923	166.94
588.017	131.94
588.111	187.94
588.205	309.94
588.3	115.94
588.394	140.94
588.488	178.94
588.582	216.94
588.676	262.94
588.77	455.94
588.864	1000.94
588.958	790.94
589.052	505.94
589.147	472.94
589.241	302.94
589.335	286.94
589.429	691.94
589.523	677.94
589.617	492.94
589.711	405.94
589.805	289.94
589.899	313.94
589.993	160.94
590.087	123.94
590.181	118.94
590.275	190.94
590.369	144.94
590.462	78.94
590.556	101.94
590.65	121.94
590.744	97.94
590.838	82.94
590.932	138.94
591.026	173.94
591.12	315.94
591.214	156.94
591.307	177.94
591.401	111.94
591.495	184.94
591.589	114.94
591.683	168.94
591.777	245.94
591.87	575.94
591.964	235.94
592.058	80.94
592.152	255.94
592.245	170.94
592.339	242.94
592.433	309.94
592.527	232.94
592.62	120.94
592.714	190.94
592.808	235.94
592.901	189.94
592.995	119.94
593.089	460.94
593.182	232.94
593.276	120.94
593.37	159.94
593.463	125.94
593.557	139.94
593.65	141.94
593.744	176.94
593.837	223.94
593.931	137.94
594.025	4056.94
594.118	590.94
594.212	174.94
594.305	147.94
594.399	162.94
594.492	498.94
594.586	193.94
594.679	63.94
594.773	97.94
594.866	212.94
594.96	132.94
595.053	78.94
595.146	138.94
595.24	136.94
595.333	91.94
595.427	72.94
595.52	135.94
595.614	283.94
595.707	157.94
595.8	153.94
595.894	149.94
595.987	88.94
596.08	103.94
596.174	527.94
596.267	268.94
596.36	295.94
596.454	324.94
596.547	188.94
596.64	99.94
596.733	115.94
596.827	213.94
596.92	170.94
597.013	93.94
597.106	58.94
597.2	67.94
597.293	105.94
597.386	360.94
597.479	147.94
597.572	177.94
597.666	131.94
597.759	128.94
597.852	201.94
597.945	137.94
598.038	102.94
598.131	111.94
598.224	180.94
598.317	210.94
598.411	160.94
598.504	81.94
598.597	222.94
598.69	76.94
598.783	72.94
598.876	191.94
598.969	130.94
599.062	70.94
599.155	200.94
599.248	67.94
599.341	114.94
599.434	151.94
599.527	182.94
599.62	98.94
599.713	78.94
599.806	182.94
599.899	285.94
599.991	92.94
600.084	411.94
600.177	94.94
600.27	119.94
600.363	358.94
600.456	84.94
600.549	155.94
600.642	106.94
600.734	90.94
600.827	78.94
600.92	227.94
601.013	149.94
601.106	223.94
601.199	95.94
601.291	110.94
601.384	100.94
601.477	321.94
601.57	248.94
601.662	69.94
601.755	143.94
601.848	158.94
601.94	95.94
602.033	255.94
602.126	148.94
602.219	109.94
602.311	166.94
602.404	90.94
602.497	140.94
602.589	60.94
602.682	144.94
602.774	196.94
602.867	135.94
602.96	114.94
603.052	150.94
603.145	102.94
603.237	52.94
603.33	97.94
603.422	277.94
603.515	106.94
603.608	132.94
603.7	185.94
603.793	95.94
603.885	158.94
603.978	107.94
604.07	78.94
604.163	59.94
604.255	161.94
604.347	62.94
604.44	13.94
604.532	124.94
604.625	105.94
604.717	42.94
604.81	137.94
604.902	110.94
604.994	29.94
605.087	105.94
605.179	114.94
605.271	110.94
605.364	99.94
605.456	184.94
605.548	90.94
605.641	115.94
605.733	92.94
605.825	161.94
605.918	30.94
606.01	286.94
606.102	661.94
606.194	133.94
606.287	270.94
606.379	86.94
606.471	101.94
606.563	149.94
606.655	206.94
606.748	196.94
606.84	85.94
606.932	158.94
607.024	117.94
607.116	50.94
607.208	112.94
607.301	170.94
607.393	98.94
607.485	89.94
607.577	168.94
607.669	177.94
607.761	185.94
607.853	369.94
607.945	98.94
608.037	21.94
608.129	91.94
608.221	110.94
608.313	49.94
608.405	151.94
608.497	137.94
608.589	46.94
608.681	98.94
608.773	196.94
608.865	139.94
608.957	131.94
609.049	101.94
609.141	200.94
609.233	62.94
609.325	81.94
609.417	102.94
609.509	165.94
609.601	245.94
609.693	229.94
609.784	102.94
609.876	114.94
609.968	203.94
610.06	2385.94
610.152	381.94
610.244	413.94
610.335	108.94
610.427	63.94
610.519	92.94
610.611	163.94
610.702	98.94
610.794	173.94
610.886	230.94
610.978	147.94
611.069	624.94
611.161	213.94
611.253	259.94
611.344	103.94
611.436	78.94
611.528	195.94
611.62	58.94
611.711	71.94
611.803	106.94
611.894	71.94
611.986	94.94
612.078	169.94
612.169	121.94
612.261	91.94
612.352	103.94
612.444	53.94
612.536	197.94
612.627	122.94
612.719	82.94
612.81	40.94
612.902	54.94
612.993	126.94
613.085	36.94
613.176	-3.06
613.268	90.94
613.359	50.94
613.451	65.94
613.542	122.94
613.634	65.94
613.725	77.94
613.816	193.94
613.908	42.94
613.999	74.94
614.091	-28.06
614.182	-7.06
614.273	102.94
614.365	30.94
614.456	7.94
614.547	-6.06
614.639	-1.06
614.73	53.94
614.821	123.94
614.913	-38.06
615.004	-17.06
615.095	-32.06
615.187	-59.06
