Data from 35g_HRC06701__42__469.txt Node

Date: Thu Apr 18 02:32:14 CDT 2024
User: Estudiantes 2
Spectrometer: HR+C0670
Trigger mode: 4
Integration Time (sec): 1.000000E0
Scans to average: 1
Electric dark correction enabled: true
Nonlinearity correction enabled: false
Boxcar width: 0
XAxis mode: Wavelengths
Number of Pixels in Spectrum: 2048
>>>>>Begin Spectral Data<<<<<
407.81	-144.38
407.921	-144.38
408.032	-144.38
408.143	-155.38
408.254	-121.38
408.365	32.62
408.476	284.62
408.587	10.62
408.699	-14.38
408.81	-12.38
408.921	-63.38
409.032	-26.38
409.143	25.62
409.254	12.62
409.365	96.62
409.476	-61.38
409.587	11.62
409.698	124.62
409.809	75.62
409.92	-41.38
410.031	29.62
410.142	90.62
410.253	16.62
410.364	47.62
410.475	302.62
410.585	1615.62
410.696	1799.62
410.807	1852.62
410.918	1692.62
411.029	1873.62
411.14	1901.62
411.251	1750.62
411.362	1846.62
411.472	1859.62
411.583	1816.62
411.694	1852.62
411.805	1861.62
411.916	1928.62
412.026	1981.62
412.137	1873.62
412.248	1875.62
412.359	1836.62
412.47	1808.62
412.58	1804.62
412.691	1837.62
412.802	1795.62
412.912	1842.62
413.023	1821.62
413.134	1766.62
413.245	1875.62
413.355	1822.62
413.466	1812.62
413.577	1790.62
413.687	1887.62
413.798	1761.62
413.909	1853.62
414.019	1949.62
414.13	1837.62
414.24	1799.62
414.351	1944.62
414.462	2023.62
414.572	1888.62
414.683	1986.62
414.793	1855.62
414.904	2176.62
415.014	1883.62
415.125	1868.62
415.235	1853.62
415.346	2009.62
415.456	1992.62
415.567	1849.62
415.677	1793.62
415.788	1884.62
415.898	1788.62
416.009	1761.62
416.119	1899.62
416.23	1856.62
416.34	1794.62
416.45	1876.62
416.561	2526.62
416.671	1955.62
416.782	1813.62
416.892	1879.62
417.002	1880.62
417.113	1946.62
417.223	1941.62
417.333	1863.62
417.444	1888.62
417.554	2002.62
417.664	2025.62
417.775	1894.62
417.885	1976.62
417.995	2023.62
418.106	2162.62
418.216	2097.62
418.326	2130.62
418.436	2168.62
418.547	2082.62
418.657	2146.62
418.767	2223.62
418.877	2148.62
418.987	2108.62
419.098	2194.62
419.208	2180.62
419.318	2250.62
419.428	2218.62
419.538	2155.62
419.648	2182.62
419.759	2239.62
419.869	2181.62
419.979	2101.62
420.089	2198.62
420.199	2191.62
420.309	2214.62
420.419	2219.62
420.529	2203.62
420.639	2527.62
420.749	2199.62
420.859	2300.62
420.969	2189.62
421.079	2463.62
421.189	2302.62
421.299	2202.62
421.409	2167.62
421.519	2384.62
421.629	2384.62
421.739	2209.62
421.849	2204.62
421.959	2290.62
422.069	2333.62
422.179	2311.62
422.289	2366.62
422.399	2401.62
422.509	2452.62
422.619	4972.62
422.729	2656.62
422.838	2369.62
422.948	2546.62
423.058	2513.62
423.168	2527.62
423.278	2536.62
423.388	2629.62
423.498	2683.62
423.607	2680.62
423.717	2944.62
423.827	2876.62
423.937	2706.62
424.046	2784.62
424.156	2768.62
424.266	2715.62
424.376	2960.62
424.485	2894.62
424.595	2627.62
424.705	2714.62
424.815	2774.62
424.924	3244.62
425.034	2820.62
425.144	2699.62
425.253	2727.62
425.363	2850.62
425.473	2838.62
425.582	2671.62
425.692	2751.62
425.801	2777.62
425.911	2899.62
426.021	2764.62
426.13	2935.62
426.24	3055.62
426.349	2928.62
426.459	2855.62
426.568	2892.62
426.678	2955.62
426.787	2880.62
426.897	2918.62
427.006	2868.62
427.116	3000.62
427.225	2931.62
427.335	3048.62
427.444	2917.62
427.554	3046.62
427.663	2993.62
427.773	2960.62
427.882	3117.62
427.992	3061.62
428.101	3045.62
428.21	3049.62
428.32	3092.62
428.429	3029.62
428.539	3345.62
428.648	3126.62
428.757	3184.62
428.867	3123.62
428.976	3281.62
429.085	3204.62
429.195	3143.62
429.304	3158.62
429.413	3239.62
429.523	3341.62
429.632	3268.62
429.741	3319.62
429.85	3174.62
429.96	3300.62
430.069	3311.62
430.178	3317.62
430.287	3585.62
430.397	3335.62
430.506	3435.62
430.615	3269.62
430.724	3360.62
430.833	3479.62
430.943	3493.62
431.052	3459.62
431.161	3622.62
431.27	3607.62
431.379	3579.62
431.488	3839.62
431.597	3762.62
431.706	3787.62
431.816	3677.62
431.925	3677.62
432.034	3609.62
432.143	3723.62
432.252	3736.62
432.361	3796.62
432.47	3732.62
432.579	3724.62
432.688	3693.62
432.797	3694.62
432.906	3677.62
433.015	3774.62
433.124	4050.62
433.233	3814.62
433.342	3744.62
433.451	3700.62
433.56	3753.62
433.669	3754.62
433.778	3708.62
433.886	3867.62
433.995	3972.62
434.104	4060.62
434.213	3999.62
434.322	4009.62
434.431	4242.62
434.54	4257.62
434.649	4543.62
434.757	4361.62
434.866	4257.62
434.975	4307.62
435.084	4187.62
435.193	4043.62
435.301	4141.62
435.41	4231.62
435.519	4327.62
435.628	3713.62
435.737	3665.62
435.845	3565.62
435.954	3495.62
436.063	3655.62
436.171	3608.62
436.28	3581.62
436.389	3711.62
436.498	3652.62
436.606	3570.62
436.715	3806.62
436.823	3553.62
436.932	3379.62
437.041	3385.62
437.149	3492.62
437.258	3402.62
437.367	3223.62
437.475	3319.62
437.584	3640.62
437.692	3243.62
437.801	4972.62
437.91	3454.62
438.018	3257.62
438.127	3190.62
438.235	3290.62
438.344	3256.62
438.452	3244.62
438.561	3205.62
438.669	3262.62
438.778	3083.62
438.886	3228.62
438.995	3251.62
439.103	3167.62
439.212	3253.62
439.32	3272.62
439.428	3208.62
439.537	3209.62
439.645	3366.62
439.754	3360.62
439.862	3240.62
439.97	3466.62
440.079	3378.62
440.187	3224.62
440.295	3497.62
440.404	3459.62
440.512	3425.62
440.62	3503.62
440.729	3517.62
440.837	3583.62
440.945	4284.62
441.054	3780.62
441.162	3628.62
441.27	3876.62
441.378	3877.62
441.487	3856.62
441.595	4240.62
441.703	3908.62
441.811	3828.62
441.92	3683.62
442.028	3600.62
442.136	3726.62
442.244	3676.62
442.352	3709.62
442.461	3475.62
442.569	3568.62
442.677	3628.62
442.785	3697.62
442.893	3636.62
443.001	3572.62
443.109	3574.62
443.217	3637.62
443.325	3526.62
443.434	4348.62
443.542	4035.62
443.65	3756.62
443.758	3909.62
443.866	3871.62
443.974	4222.62
444.082	4064.62
444.19	4168.62
444.298	4299.62
444.406	4459.62
444.514	4563.62
444.622	4671.62
444.73	4430.62
444.838	4399.62
444.946	4322.62
445.054	3972.62
445.161	4005.62
445.269	3889.62
445.377	3876.62
445.485	3849.62
445.593	3777.62
445.701	3972.62
445.809	3755.62
445.917	3639.62
446.025	3606.62
446.132	3699.62
446.24	3792.62
446.348	3650.62
446.456	3612.62
446.564	3568.62
446.671	3560.62
446.779	3558.62
446.887	3545.62
446.995	3571.62
447.102	3673.62
447.21	3564.62
447.318	3467.62
447.426	3452.62
447.533	3755.62
447.641	4827.62
447.749	3588.62
447.856	3434.62
447.964	3440.62
448.072	3664.62
448.179	3486.62
448.287	3461.62
448.395	3557.62
448.502	3499.62
448.61	3494.62
448.718	3406.62
448.825	3585.62
448.933	3507.62
449.04	3398.62
449.148	3682.62
449.256	3606.62
449.363	3567.62
449.471	3620.62
449.578	3697.62
449.686	3583.62
449.793	3802.62
449.901	3784.62
450.008	3688.62
450.116	3804.62
450.223	3760.62
450.331	3803.62
450.438	3932.62
450.546	4014.62
450.653	4025.62
450.76	4056.62
450.868	4112.62
450.975	4277.62
451.083	4062.62
451.19	4080.62
451.297	4085.62
451.405	4093.62
451.512	4128.62
451.619	4205.62
451.727	4287.62
451.834	4057.62
451.941	4251.62
452.049	4116.62
452.156	4149.62
452.263	4222.62
452.371	4163.62
452.478	4179.62
452.585	4319.62
452.692	4239.62
452.8	4321.62
452.907	4471.62
453.014	4403.62
453.121	4289.62
453.229	4391.62
453.336	4420.62
453.443	4424.62
453.55	4390.62
453.657	4437.62
453.765	4565.62
453.872	4458.62
453.979	4462.62
454.086	4552.62
454.193	4445.62
454.3	4442.62
454.407	4696.62
454.514	4627.62
454.621	4528.62
454.729	4484.62
454.836	4615.62
454.943	4506.62
455.05	4741.62
455.157	4748.62
455.264	4573.62
455.371	4799.62
455.478	4669.62
455.585	4976.62
455.692	4788.62
455.799	4909.62
455.906	4703.62
456.013	4762.62
456.12	4786.62
456.227	4722.62
456.334	4914.62
456.44	4978.62
456.547	4926.62
456.654	4879.62
456.761	4983.62
456.868	5156.62
456.975	5016.62
457.082	4945.62
457.189	4984.62
457.296	5090.62
457.402	5004.62
457.509	5043.62
457.616	5182.62
457.723	5520.62
457.83	5264.62
457.936	5335.62
458.043	5674.62
458.15	5333.62
458.257	5643.62
458.363	5647.62
458.47	5768.62
458.577	5893.62
458.684	5791.62
458.79	6207.62
458.897	6230.62
459.004	6332.62
459.11	6267.62
459.217	6445.62
459.324	6535.62
459.43	6718.62
459.537	6872.62
459.644	6911.62
459.75	7040.62
459.857	7501.62
459.964	7241.62
460.07	7246.62
460.177	7543.62
460.283	7557.62
460.39	7648.62
460.496	7501.62
460.603	7646.62
460.71	7444.62
460.816	7350.62
460.923	7357.62
461.029	7539.62
461.136	7443.62
461.242	7362.62
461.349	7504.62
461.455	7481.62
461.562	7826.62
461.668	7672.62
461.774	7644.62
461.881	7877.62
461.987	7920.62
462.094	8008.62
462.2	8088.62
462.307	8179.62
462.413	8199.62
462.519	8521.62
462.626	9068.62
462.732	9291.62
462.838	9726.62
462.945	10101.62
463.051	9981.62
463.157	9625.62
463.264	9263.62
463.37	9033.62
463.476	8614.62
463.583	8591.62
463.689	8488.62
463.795	8621.62
463.901	8641.62
464.008	8880.62
464.114	8723.62
464.22	8444.62
464.326	8569.62
464.433	8258.62
464.539	8068.62
464.645	7887.62
464.751	7952.62
464.857	7643.62
464.963	7096.62
465.07	6929.62
465.176	6798.62
465.282	6622.62
465.388	6468.62
465.494	6209.62
465.6	5989.62
465.706	5864.62
465.812	5773.62
465.918	5927.62
466.024	5691.62
466.131	5706.62
466.237	5534.62
466.343	5361.62
466.449	5294.62
466.555	5334.62
466.661	5090.62
466.767	5097.62
466.873	5130.62
466.979	5195.62
467.085	5019.62
467.191	5113.62
467.296	5020.62
467.402	5061.62
467.508	4946.62
467.614	5125.62
467.72	4799.62
467.826	4697.62
467.932	4835.62
468.038	4682.62
468.144	4664.62
468.25	4588.62
468.355	4571.62
468.461	4589.62
468.567	4628.62
468.673	4617.62
468.779	4500.62
468.885	4534.62
468.99	4519.62
469.096	4547.62
469.202	4653.62
469.308	4645.62
469.413	4719.62
469.519	4664.62
469.625	4727.62
469.731	4695.62
469.836	4818.62
469.942	4943.62
470.048	4901.62
470.153	4844.62
470.259	4796.62
470.365	4957.62
470.47	4806.62
470.576	4742.62
470.682	4805.62
470.787	4644.62
470.893	4472.62
470.999	4594.62
471.104	4467.62
471.21	4303.62
471.315	4158.62
471.421	4213.62
471.527	4408.62
471.632	4317.62
471.738	4171.62
471.843	4036.62
471.949	4100.62
472.054	4140.62
472.16	3954.62
472.265	4014.62
472.371	3949.62
472.476	3941.62
472.582	4044.62
472.687	3935.62
472.793	3859.62
472.898	3884.62
473.003	3798.62
473.109	3793.62
473.214	3774.62
473.32	3732.62
473.425	3884.62
473.53	3708.62
473.636	3725.62
473.741	3664.62
473.847	3624.62
473.952	3759.62
474.057	3859.62
474.163	3792.62
474.268	3652.62
474.373	3669.62
474.478	3682.62
474.584	3653.62
474.689	3716.62
474.794	3770.62
474.9	3947.62
475.005	3671.62
475.11	3904.62
475.215	3682.62
475.321	3731.62
475.426	3967.62
475.531	3943.62
475.636	3705.62
475.741	3682.62
475.846	4002.62
475.952	4029.62
476.057	3904.62
476.162	3964.62
476.267	3946.62
476.372	4142.62
476.477	3929.62
476.582	4024.62
476.687	3935.62
476.793	3978.62
476.898	3953.62
477.003	4001.62
477.108	4099.62
477.213	4057.62
477.318	4089.62
477.423	4173.62
477.528	4323.62
477.633	4356.62
477.738	4377.62
477.843	4360.62
477.948	4444.62
478.053	4379.62
478.158	4404.62
478.263	4562.62
478.368	4508.62
478.473	4702.62
478.578	4724.62
478.682	4621.62
478.787	4717.62
478.892	4720.62
478.997	4735.62
479.102	4722.62
479.207	4667.62
479.312	4864.62
479.417	4632.62
479.521	4774.62
479.626	4917.62
479.731	4861.62
479.836	4981.62
479.941	5131.62
480.045	5173.62
480.15	5248.62
480.255	5265.62
480.36	5161.62
480.465	5231.62
480.569	5327.62
480.674	5073.62
480.779	4788.62
480.883	4798.62
480.988	4895.62
481.093	4825.62
481.197	4840.62
481.302	4845.62
481.407	4739.62
481.511	6179.62
481.616	4821.62
481.721	4662.62
481.825	4942.62
481.93	4709.62
482.035	4689.62
482.139	4815.62
482.244	4800.62
482.348	4790.62
482.453	4765.62
482.557	4834.62
482.662	4934.62
482.767	4745.62
482.871	4865.62
482.976	4874.62
483.08	4920.62
483.185	5184.62
483.289	5027.62
483.394	5084.62
483.498	5099.62
483.603	5015.62
483.707	5197.62
483.811	5232.62
483.916	5293.62
484.02	5322.62
484.125	5455.62
484.229	5363.62
484.333	5658.62
484.438	5522.62
484.542	5445.62
484.647	5553.62
484.751	5575.62
484.855	5632.62
484.96	5600.62
485.064	5776.62
485.168	5691.62
485.273	5736.62
485.377	5862.62
485.481	6149.62
485.585	5845.62
485.69	6007.62
485.794	6046.62
485.898	5969.62
486.002	5989.62
486.107	6048.62
486.211	5936.62
486.315	6053.62
486.419	6210.62
486.524	6039.62
486.628	5992.62
486.732	6155.62
486.836	5899.62
486.94	6121.62
487.044	6158.62
487.148	6046.62
487.253	5906.62
487.357	6079.62
487.461	6318.62
487.565	6120.62
487.669	6054.62
487.773	6109.62
487.877	6124.62
487.981	6160.62
488.085	6163.62
488.189	6018.62
488.293	6224.62
488.397	6565.62
488.501	6110.62
488.605	6033.62
488.709	6110.62
488.813	6141.62
488.917	6104.62
489.021	6085.62
489.125	6441.62
489.229	6075.62
489.333	6216.62
489.437	6234.62
489.541	6174.62
489.645	6150.62
489.749	6238.62
489.853	6321.62
489.956	6130.62
490.06	6227.62
490.164	6353.62
490.268	6189.62
490.372	6271.62
490.476	6359.62
490.579	6175.62
490.683	6959.62
490.787	6421.62
490.891	6103.62
490.995	6211.62
491.098	6260.62
491.202	6196.62
491.306	6309.62
491.41	6276.62
491.513	6237.62
491.617	6180.62
491.721	6448.62
491.824	6524.62
491.928	6184.62
492.032	6572.62
492.136	6252.62
492.239	6216.62
492.343	6367.62
492.446	6819.62
492.55	6448.62
492.654	6183.62
492.757	6368.62
492.861	6418.62
492.965	6290.62
493.068	6379.62
493.172	6349.62
493.275	6286.62
493.379	6283.62
493.482	6504.62
493.586	6431.62
493.689	6614.62
493.793	6407.62
493.896	6529.62
494	6534.62
494.103	6643.62
494.207	6826.62
494.31	6863.62
494.414	6578.62
494.517	6450.62
494.621	6342.62
494.724	6450.62
494.828	6353.62
494.931	6277.62
495.034	6241.62
495.138	6604.62
495.241	6215.62
495.345	7110.62
495.448	6394.62
495.551	6361.62
495.655	6244.62
495.758	6297.62
495.861	6253.62
495.965	6183.62
496.068	6295.62
496.171	6553.62
496.274	6375.62
496.378	6349.62
496.481	6531.62
496.584	6508.62
496.687	6539.62
496.791	6557.62
496.894	6518.62
496.997	6531.62
497.1	6783.62
497.204	6785.62
497.307	6755.62
497.41	7078.62
497.513	7225.62
497.616	7099.62
497.719	7095.62
497.823	7327.62
497.926	7388.62
498.029	7668.62
498.132	7646.62
498.235	8047.62
498.338	8339.62
498.441	8404.62
498.544	8728.62
498.647	8886.62
498.75	9247.62
498.853	9690.62
498.956	9856.62
499.059	10485.62
499.163	10653.62
499.266	11168.62
499.369	11489.62
499.471	11987.62
499.574	12886.62
499.677	13382.62
499.78	14184.62
499.883	14585.62
499.986	14585.62
500.089	14585.62
500.192	14585.62
500.295	14585.62
500.398	14585.62
500.501	14585.62
500.604	14585.62
500.707	14585.62
500.809	14277.62
500.912	13656.62
501.015	12924.62
501.118	12104.62
501.221	11635.62
501.324	10752.62
501.426	10256.62
501.529	9832.62
501.632	9432.62
501.735	8980.62
501.837	8624.62
501.94	8426.62
502.043	8239.62
502.146	7975.62
502.248	7855.62
502.351	7496.62
502.454	7396.62
502.557	7351.62
502.659	7046.62
502.762	6820.62
502.865	6716.62
502.967	6461.62
503.07	6326.62
503.173	6405.62
503.275	6225.62
503.378	6167.62
503.48	6007.62
503.583	6208.62
503.686	6032.62
503.788	6342.62
503.891	6038.62
503.993	6304.62
504.096	6099.62
504.198	6173.62
504.301	6157.62
504.403	6239.62
504.506	6141.62
504.608	5867.62
504.711	5794.62
504.813	5631.62
504.916	5394.62
505.018	5254.62
505.121	5156.62
505.223	5175.62
505.326	4927.62
505.428	5015.62
505.531	4936.62
505.633	4840.62
505.735	4732.62
505.838	4632.62
505.94	4710.62
506.042	4562.62
506.145	4452.62
506.247	4604.62
506.35	4501.62
506.452	4613.62
506.554	4659.62
506.656	4415.62
506.759	4361.62
506.861	4436.62
506.963	4437.62
507.066	4372.62
507.168	4538.62
507.27	4308.62
507.372	4280.62
507.475	4279.62
507.577	4294.62
507.679	4260.62
507.781	4081.62
507.883	4243.62
507.986	4069.62
508.088	4128.62
508.19	4214.62
508.292	4066.62
508.394	4087.62
508.496	4073.62
508.598	4184.62
508.701	4065.62
508.803	4053.62
508.905	4028.62
509.007	4040.62
509.109	4120.62
509.211	4085.62
509.313	3931.62
509.415	3954.62
509.517	4023.62
509.619	3926.62
509.721	3939.62
509.823	4009.62
509.925	4143.62
510.027	3942.62
510.129	3931.62
510.231	3940.62
510.333	3899.62
510.435	3876.62
510.537	4069.62
510.639	4028.62
510.741	3950.62
510.843	3962.62
510.945	4016.62
511.047	4021.62
511.148	4000.62
511.25	3976.62
511.352	3969.62
511.454	3927.62
511.556	4093.62
511.658	3897.62
511.76	4055.62
511.861	4199.62
511.963	3935.62
512.065	4029.62
512.167	3922.62
512.268	4185.62
512.37	3867.62
512.472	4020.62
512.574	4077.62
512.676	4052.62
512.777	3957.62
512.879	4050.62
512.981	3965.62
513.082	4092.62
513.184	4111.62
513.286	4517.62
513.387	4041.62
513.489	4326.62
513.591	4156.62
513.692	4145.62
513.794	4220.62
513.896	3995.62
513.997	4051.62
514.099	4149.62
514.2	4238.62
514.302	4231.62
514.404	4141.62
514.505	4209.62
514.607	4284.62
514.708	4232.62
514.81	4392.62
514.911	4419.62
515.013	4391.62
515.114	4369.62
515.216	4381.62
515.317	4470.62
515.419	4466.62
515.52	4599.62
515.622	4539.62
515.723	4700.62
515.825	4909.62
515.926	4725.62
516.027	4755.62
516.129	4932.62
516.23	5022.62
516.332	5056.62
516.433	5162.62
516.534	5428.62
516.636	5363.62
516.737	5516.62
516.838	6960.62
516.94	5871.62
517.041	5971.62
517.142	6267.62
517.244	6263.62
517.345	6260.62
517.446	6286.62
517.547	6369.62
517.649	6290.62
517.75	6452.62
517.851	6267.62
517.952	6625.62
518.054	6195.62
518.155	6219.62
518.256	5861.62
518.357	6045.62
518.458	5708.62
518.56	5525.62
518.661	5429.62
518.762	5428.62
518.863	5434.62
518.964	5367.62
519.065	5180.62
519.166	5184.62
519.268	4977.62
519.369	5322.62
519.47	5097.62
519.571	4983.62
519.672	4951.62
519.773	4918.62
519.874	4875.62
519.975	4927.62
520.076	4799.62
520.177	4835.62
520.278	4734.62
520.379	4811.62
520.48	4742.62
520.581	4618.62
520.682	4697.62
520.783	4758.62
520.884	4783.62
520.985	4667.62
521.086	4723.62
521.187	4795.62
521.288	4594.62
521.389	4697.62
521.489	4563.62
521.59	4550.62
521.691	4683.62
521.792	4623.62
521.893	4762.62
521.994	4608.62
522.095	4607.62
522.195	4640.62
522.296	4676.62
522.397	4660.62
522.498	4527.62
522.599	4472.62
522.699	4643.62
522.8	4521.62
522.901	4631.62
523.002	4581.62
523.102	4880.62
523.203	4592.62
523.304	4787.62
523.405	4541.62
523.505	4579.62
523.606	4594.62
523.707	4619.62
523.807	4592.62
523.908	4561.62
524.009	4598.62
524.109	4556.62
524.21	4576.62
524.31	4650.62
524.411	4787.62
524.512	4775.62
524.612	4645.62
524.713	4837.62
524.813	4655.62
524.914	4988.62
525.014	10956.62
525.115	5052.62
525.216	4549.62
525.316	4699.62
525.417	4657.62
525.517	4605.62
525.618	4591.62
525.718	4650.62
525.819	4603.62
525.919	4709.62
526.019	4660.62
526.12	4771.62
526.22	4616.62
526.321	4679.62
526.421	4613.62
526.522	4567.62
526.622	4642.62
526.722	4578.62
526.823	4658.62
526.923	4714.62
527.023	4754.62
527.124	4615.62
527.224	4825.62
527.324	4628.62
527.425	4679.62
527.525	4659.62
527.625	4689.62
527.726	4583.62
527.826	4753.62
527.926	4682.62
528.026	4700.62
528.127	4640.62
528.227	4684.62
528.327	4811.62
528.427	4609.62
528.528	4679.62
528.628	4712.62
528.728	4653.62
528.828	4761.62
528.928	4816.62
529.029	4583.62
529.129	4596.62
529.229	4696.62
529.329	4584.62
529.429	4726.62
529.529	4785.62
529.629	4787.62
529.729	4648.62
529.829	4805.62
529.93	4669.62
530.03	4684.62
530.13	4583.62
530.23	4647.62
530.33	4651.62
530.43	4643.62
530.53	4637.62
530.63	4684.62
530.73	4647.62
530.83	4468.62
530.93	4521.62
531.03	4477.62
531.13	4636.62
531.23	4548.62
531.33	4557.62
531.429	4645.62
531.529	4787.62
531.629	4677.62
531.729	4482.62
531.829	4571.62
531.929	4577.62
532.029	4502.62
532.129	4604.62
532.229	4632.62
532.328	4472.62
532.428	4467.62
532.528	4519.62
532.628	4359.62
532.728	4492.62
532.827	4379.62
532.927	4504.62
533.027	4353.62
533.127	4664.62
533.227	4480.62
533.326	4427.62
533.426	4312.62
533.526	4494.62
533.625	4522.62
533.725	4708.62
533.825	4487.62
533.924	4285.62
534.024	4192.62
534.124	4332.62
534.223	4351.62
534.323	4760.62
534.423	4329.62
534.522	4317.62
534.622	4169.62
534.722	4251.62
534.821	4341.62
534.921	4122.62
535.02	4108.62
535.12	4230.62
535.219	4338.62
535.319	4245.62
535.419	4198.62
535.518	4064.62
535.618	4068.62
535.717	4103.62
535.817	4022.62
535.916	3835.62
536.016	4019.62
536.115	3993.62
536.215	3902.62
536.314	3860.62
536.413	3879.62
536.513	3844.62
536.612	3848.62
536.712	3806.62
536.811	3769.62
536.91	3649.62
537.01	3747.62
537.109	3899.62
537.209	3776.62
537.308	3718.62
537.407	3837.62
537.507	3729.62
537.606	3726.62
537.705	3932.62
537.805	3713.62
537.904	3587.62
538.003	3744.62
538.102	3872.62
538.202	3624.62
538.301	3711.62
538.4	3779.62
538.499	3613.62
538.599	3693.62
538.698	3950.62
538.797	3536.62
538.896	3691.62
538.995	3698.62
539.095	3524.62
539.194	3845.62
539.293	3612.62
539.392	3599.62
539.491	3497.62
539.59	3516.62
539.689	3731.62
539.789	3611.62
539.888	3466.62
539.987	3487.62
540.086	3402.62
540.185	3362.62
540.284	3532.62
540.383	3427.62
540.482	3454.62
540.581	3475.62
540.68	3458.62
540.779	3454.62
540.878	3438.62
540.977	3506.62
541.076	3410.62
541.175	3538.62
541.274	3703.62
541.373	3535.62
541.472	3461.62
541.571	3363.62
541.67	4723.62
541.769	3494.62
541.868	3380.62
541.966	3452.62
542.065	3371.62
542.164	3333.62
542.263	3299.62
542.362	3355.62
542.461	3429.62
542.56	3398.62
542.658	3391.62
542.757	3328.62
542.856	3297.62
542.955	3293.62
543.054	3175.62
543.152	3460.62
543.251	3311.62
543.35	3413.62
543.449	3395.62
543.547	3343.62
543.646	3274.62
543.745	3341.62
543.843	3392.62
543.942	3382.62
544.041	3310.62
544.14	3388.62
544.238	3284.62
544.337	3547.62
544.436	3389.62
544.534	3502.62
544.633	3362.62
544.731	3390.62
544.83	3451.62
544.929	3308.62
545.027	3299.62
545.126	3461.62
545.224	3465.62
545.323	3318.62
545.421	3411.62
545.52	3447.62
545.619	3361.62
545.717	3383.62
545.816	3551.62
545.914	3416.62
546.013	3537.62
546.111	3591.62
546.209	3367.62
546.308	3293.62
546.406	3379.62
546.505	3460.62
546.603	3333.62
546.702	3311.62
546.8	3282.62
546.899	3249.62
546.997	3368.62
547.095	3367.62
547.194	3378.62
547.292	3364.62
547.39	3454.62
547.489	3323.62
547.587	3693.62
547.685	3422.62
547.784	3644.62
547.882	3419.62
547.98	3362.62
548.079	3373.62
548.177	3295.62
548.275	3257.62
548.373	3488.62
548.472	3312.62
548.57	3341.62
548.668	3421.62
548.766	3339.62
548.864	3502.62
548.963	3421.62
549.061	3550.62
549.159	3378.62
549.257	3482.62
549.355	3399.62
549.454	3366.62
549.552	3590.62
549.65	3574.62
549.748	3390.62
549.846	3375.62
549.944	3495.62
550.042	3304.62
550.14	3324.62
550.238	3321.62
550.336	3221.62
550.434	3300.62
550.532	3255.62
550.631	3407.62
550.729	3364.62
550.827	3474.62
550.925	3328.62
551.023	3359.62
551.121	3276.62
551.218	3302.62
551.316	3219.62
551.414	3245.62
551.512	3304.62
551.61	3385.62
551.708	3474.62
551.806	3450.62
551.904	3389.62
552.002	3358.62
552.1	3444.62
552.198	3468.62
552.296	3668.62
552.393	3716.62
552.491	3733.62
552.589	3777.62
552.687	3769.62
552.785	3852.62
552.882	3949.62
552.98	4104.62
553.078	4072.62
553.176	3919.62
553.274	3746.62
553.371	3871.62
553.469	3864.62
553.567	3660.62
553.665	3703.62
553.762	4152.62
553.86	3740.62
553.958	3718.62
554.055	3583.62
554.153	3630.62
554.251	3496.62
554.348	3557.62
554.446	3336.62
554.544	3387.62
554.641	3767.62
554.739	3356.62
554.837	3341.62
554.934	3436.62
555.032	3358.62
555.129	3236.62
555.227	3580.62
555.324	7743.62
555.422	3583.62
555.519	3227.62
555.617	3222.62
555.715	3084.62
555.812	3518.62
555.91	3101.62
556.007	3196.62
556.105	3143.62
556.202	3189.62
556.299	3068.62
556.397	3158.62
556.494	3062.62
556.592	3039.62
556.689	3089.62
556.787	2971.62
556.884	3004.62
556.981	2988.62
557.079	2907.62
557.176	3132.62
557.273	3123.62
557.371	3143.62
557.468	2969.62
557.566	3174.62
557.663	2972.62
557.76	3008.62
557.857	3096.62
557.955	3060.62
558.052	3099.62
558.149	3149.62
558.247	3203.62
558.344	3008.62
558.441	3011.62
558.538	3020.62
558.636	2962.62
558.733	3058.62
558.83	3083.62
558.927	2987.62
559.024	3016.62
559.122	3031.62
559.219	3091.62
559.316	3153.62
559.413	3210.62
559.51	3080.62
559.607	2958.62
559.704	3155.62
559.801	3207.62
559.899	3119.62
559.996	3367.62
560.093	3192.62
560.19	3007.62
560.287	3177.62
560.384	3287.62
560.481	3077.62
560.578	3039.62
560.675	3099.62
560.772	3184.62
560.869	3044.62
560.966	3279.62
561.063	3090.62
561.16	3246.62
561.257	3165.62
561.354	3212.62
561.451	3043.62
561.548	3156.62
561.645	3418.62
561.742	3104.62
561.838	3136.62
561.935	3256.62
562.032	3161.62
562.129	3175.62
562.226	3232.62
562.323	3277.62
562.42	3207.62
562.516	3153.62
562.613	3220.62
562.71	3223.62
562.807	4086.62
562.904	3314.62
563	3266.62
563.097	3245.62
563.194	3293.62
563.291	3231.62
563.387	3319.62
563.484	3412.62
563.581	3389.62
563.678	3266.62
563.774	3847.62
563.871	3486.62
563.968	3481.62
564.064	3537.62
564.161	3561.62
564.258	3499.62
564.354	3649.62
564.451	3718.62
564.548	3630.62
564.644	3651.62
564.741	3637.62
564.837	3652.62
564.934	3810.62
565.031	3832.62
565.127	3964.62
565.224	3985.62
565.32	4168.62
565.417	4133.62
565.513	4207.62
565.61	4342.62
565.706	4540.62
565.803	4645.62
565.899	4593.62
565.996	4766.62
566.092	4988.62
566.189	5151.62
566.285	5330.62
566.382	5643.62
566.478	5765.62
566.574	5979.62
566.671	5949.62
566.767	5925.62
566.864	5828.62
566.96	5989.62
567.056	6061.62
567.153	6483.62
567.249	6467.62
567.345	6637.62
567.442	6774.62
567.538	6823.62
567.634	7153.62
567.731	7033.62
567.827	7054.62
567.923	7119.62
568.019	6409.62
568.116	6162.62
568.212	5897.62
568.308	5843.62
568.404	5505.62
568.501	5365.62
568.597	5261.62
568.693	4962.62
568.789	5524.62
568.885	4651.62
568.982	4619.62
569.078	4370.62
569.174	4439.62
569.27	4114.62
569.366	4191.62
569.462	4051.62
569.558	3940.62
569.655	3835.62
569.751	3772.62
569.847	3794.62
569.943	3691.62
570.039	3660.62
570.135	4266.62
570.231	3677.62
570.327	3839.62
570.423	3838.62
570.519	3804.62
570.615	3703.62
570.711	3825.62
570.807	3862.62
570.903	3663.62
570.999	3733.62
571.095	3747.62
571.191	3639.62
571.287	3517.62
571.383	3559.62
571.479	3479.62
571.574	3500.62
571.67	3339.62
571.766	3495.62
571.862	3265.62
571.958	3305.62
572.054	3329.62
572.15	3040.62
572.246	3034.62
572.341	3252.62
572.437	3087.62
572.533	3121.62
572.629	3136.62
572.725	3058.62
572.82	2992.62
572.916	3161.62
573.012	2971.62
573.108	3171.62
573.203	3058.62
573.299	2962.62
573.395	2858.62
573.49	2882.62
573.586	2904.62
573.682	2856.62
573.778	3102.62
573.873	2910.62
573.969	2819.62
574.065	2829.62
574.16	2888.62
574.256	2851.62
574.351	2957.62
574.447	2816.62
574.543	2851.62
574.638	2902.62
574.734	2870.62
574.829	3144.62
574.925	2802.62
575.02	2787.62
575.116	2773.62
575.212	2765.62
575.307	2890.62
575.403	2767.62
575.498	2767.62
575.594	2707.62
575.689	2767.62
575.784	2764.62
575.88	2709.62
575.975	2740.62
576.071	2665.62
576.166	2609.62
576.262	2637.62
576.357	2608.62
576.452	2804.62
576.548	2671.62
576.643	2608.62
576.739	2627.62
576.834	2546.62
576.929	2573.62
577.025	2824.62
577.12	2436.62
577.215	2424.62
577.311	2619.62
577.406	2626.62
577.501	2676.62
577.597	2433.62
577.692	2577.62
577.787	2515.62
577.882	2405.62
577.978	2497.62
578.073	2391.62
578.168	2332.62
578.263	2363.62
578.358	2341.62
578.454	2346.62
578.549	2324.62
578.644	2248.62
578.739	2416.62
578.834	2329.62
578.929	2356.62
579.025	2307.62
579.12	2355.62
579.215	2599.62
579.31	2502.62
579.405	2223.62
579.5	2376.62
579.595	2266.62
579.69	2166.62
579.785	2271.62
579.88	2207.62
579.975	2223.62
580.07	2232.62
580.165	2183.62
580.26	2378.62
580.355	2207.62
580.45	2194.62
580.545	2109.62
580.64	2156.62
580.735	2302.62
580.83	2208.62
580.925	2119.62
581.02	2173.62
581.115	2090.62
581.21	1957.62
581.305	2200.62
581.4	2114.62
581.495	2095.62
581.589	2084.62
581.684	2023.62
581.779	2113.62
581.874	2076.62
581.969	2155.62
582.064	1970.62
582.158	2069.62
582.253	2031.62
582.348	2065.62
582.443	2031.62
582.537	2087.62
582.632	2244.62
582.727	2004.62
582.822	2016.62
582.916	1966.62
583.011	1959.62
583.106	2043.62
583.201	1995.62
583.295	1971.62
583.39	1939.62
583.485	1990.62
583.579	4420.62
583.674	2180.62
583.769	2238.62
583.863	1965.62
583.958	1952.62
584.052	1835.62
584.147	1889.62
584.242	1847.62
584.336	1900.62
584.431	2059.62
584.525	1830.62
584.62	2078.62
584.714	2017.62
584.809	1994.62
584.903	1971.62
584.998	1978.62
585.092	1783.62
585.187	1917.62
585.281	1835.62
585.376	1941.62
585.47	1926.62
585.565	1871.62
585.659	1780.62
585.754	1808.62
585.848	1860.62
585.942	1934.62
586.037	1842.62
586.131	4339.62
586.226	2013.62
586.32	1839.62
586.414	1748.62
586.509	1960.62
586.603	2006.62
586.697	1798.62
586.792	1792.62
586.886	1798.62
586.98	1884.62
587.075	1829.62
587.169	1816.62
587.263	1964.62
587.357	1827.62
587.452	1797.62
587.546	1944.62
587.64	1755.62
587.734	1823.62
587.829	1889.62
587.923	1760.62
588.017	1813.62
588.111	1830.62
588.205	1889.62
588.3	1774.62
588.394	1894.62
588.488	1893.62
588.582	2084.62
588.676	2432.62
588.77	3792.62
588.864	7719.62
588.958	7325.62
589.052	5102.62
589.147	3331.62
589.241	2601.62
589.335	2843.62
589.429	5218.62
589.523	6075.62
589.617	4774.62
589.711	3168.62
589.805	2425.62
589.899	2179.62
589.993	1946.62
590.087	1755.62
590.181	1748.62
590.275	1874.62
590.369	1760.62
590.462	1733.62
590.556	1786.62
590.65	1766.62
590.744	1698.62
590.838	1748.62
590.932	1760.62
591.026	1809.62
591.12	2002.62
591.214	1853.62
591.307	1822.62
591.401	1816.62
591.495	1889.62
591.589	1764.62
591.683	1791.62
591.777	2007.62
591.87	2218.62
591.964	1927.62
592.058	1884.62
592.152	1988.62
592.245	1934.62
592.339	2089.62
592.433	2088.62
592.527	2014.62
592.62	1981.62
592.714	2151.62
592.808	2090.62
592.901	2099.62
592.995	2118.62
593.089	2402.62
593.182	2231.62
593.276	2202.62
593.37	2055.62
593.463	2030.62
593.557	2157.62
593.65	2130.62
593.744	2096.62
593.837	2268.62
593.931	2219.62
594.025	5345.62
594.118	2413.62
594.212	2125.62
594.305	2015.62
594.399	2040.62
594.492	2380.62
594.586	1979.62
594.679	1880.62
594.773	1870.62
594.866	1943.62
594.96	1749.62
595.053	1729.62
595.146	1790.62
595.24	1728.62
595.333	1749.62
595.427	1671.62
595.52	1600.62
595.614	1819.62
595.707	1750.62
595.8	1608.62
595.894	1589.62
595.987	1554.62
596.08	1494.62
596.174	1899.62
596.267	1688.62
596.36	1659.62
596.454	1646.62
596.547	1569.62
596.64	1474.62
596.733	1420.62
596.827	1538.62
596.92	1536.62
597.013	1392.62
597.106	1370.62
597.2	1336.62
597.293	1353.62
597.386	1520.62
597.479	1370.62
597.572	1450.62
597.666	1360.62
597.759	1373.62
597.852	1564.62
597.945	1323.62
598.038	1356.62
598.131	1367.62
598.224	1352.62
598.317	1478.62
598.411	1451.62
598.504	1306.62
598.597	1390.62
598.69	1343.62
598.783	1331.62
598.876	1407.62
598.969	1370.62
599.062	1374.62
599.155	1354.62
599.248	1304.62
599.341	1398.62
599.434	1296.62
599.527	1350.62
599.62	1291.62
599.713	1249.62
599.806	1383.62
599.899	1494.62
599.991	1295.62
600.084	1582.62
600.177	1279.62
600.27	1310.62
600.363	1481.62
600.456	1270.62
600.549	1434.62
600.642	1249.62
600.734	1245.62
600.827	1288.62
600.92	1428.62
601.013	1249.62
601.106	1403.62
601.199	1275.62
601.291	1214.62
601.384	1307.62
601.477	1458.62
601.57	1341.62
601.662	1220.62
601.755	1278.62
601.848	1263.62
601.94	1222.62
602.033	1470.62
602.126	1278.62
602.219	1228.62
602.311	1365.62
602.404	1250.62
602.497	1197.62
602.589	1164.62
602.682	1319.62
602.774	1305.62
602.867	1278.62
602.96	1252.62
603.052	1251.62
603.145	1166.62
603.237	1291.62
603.33	1220.62
603.422	1345.62
603.515	1181.62
603.608	1279.62
603.7	1197.62
603.793	1179.62
603.885	1264.62
603.978	1165.62
604.07	1177.62
604.163	1194.62
604.255	1227.62
604.347	1177.62
604.44	1130.62
604.532	1306.62
604.625	1259.62
604.717	1179.62
604.81	1268.62
604.902	1200.62
604.994	1100.62
605.087	1229.62
605.179	1124.62
605.271	1197.62
605.364	1200.62
605.456	1198.62
605.548	1169.62
605.641	1207.62
605.733	1207.62
605.825	1182.62
605.918	1119.62
606.01	1377.62
606.102	1595.62
606.194	1174.62
606.287	1338.62
606.379	1133.62
606.471	1195.62
606.563	1215.62
606.655	1228.62
606.748	1195.62
606.84	1183.62
606.932	1251.62
607.024	1123.62
607.116	1083.62
607.208	1135.62
607.301	1173.62
607.393	1113.62
607.485	1192.62
607.577	1167.62
607.669	1263.62
607.761	1259.62
607.853	1451.62
607.945	1072.62
608.037	1095.62
608.129	1136.62
608.221	1102.62
608.313	1104.62
608.405	1214.62
608.497	1091.62
608.589	1101.62
608.681	1237.62
608.773	1225.62
608.865	1132.62
608.957	1157.62
609.049	1107.62
609.141	1197.62
609.233	1185.62
609.325	1107.62
609.417	1058.62
609.509	1259.62
609.601	1284.62
609.693	1213.62
609.784	1153.62
609.876	1169.62
609.968	1157.62
610.06	3895.62
610.152	1416.62
610.244	1376.62
610.335	1126.62
610.427	1076.62
610.519	1095.62
610.611	1109.62
610.702	1100.62
610.794	1158.62
610.886	1131.62
610.978	1099.62
611.069	1738.62
611.161	1108.62
611.253	1130.62
611.344	1046.62
611.436	1007.62
611.528	1132.62
611.62	980.62
611.711	1017.62
611.803	931.62
611.894	968.62
611.986	972.62
612.078	972.62
612.169	959.62
612.261	963.62
612.352	889.62
612.444	886.62
612.536	1048.62
612.627	903.62
612.719	803.62
612.81	808.62
612.902	802.62
612.993	881.62
613.085	836.62
613.176	785.62
613.268	752.62
613.359	748.62
613.451	765.62
613.542	744.62
613.634	685.62
613.725	781.62
613.816	827.62
613.908	654.62
613.999	687.62
614.091	625.62
614.182	528.62
614.273	631.62
614.365	632.62
614.456	511.62
614.547	525.62
614.639	586.62
614.73	498.62
614.821	568.62
614.913	528.62
615.004	483.62
615.095	424.62
615.187	388.62
